* Sea-Bird SBE 19plus V2 Data File:
* FileName = D:\ACEX_ctd\brutos\MCTV027.hex
* Software Version Seasave V 7.17
* Temperature SN = 6161
* Conductivity SN = 6161
* System UpLoad Time = Jun 19 2012 15:36:45
** H38 
** NHo Cruzeiro do Sul 
** 222 
** MCT V 
**   027
**   33 44.55S
**   051 24.92W
**   19/06/2012 15:40 Z
**   360
** 9P46375-0882 
**   1T Germano Filho
# nquan = 14
# nvalues = 242                         
# units = specified
# name 0 = scan: Scan Count
# name 1 = timeJ: Julian Days
# name 2 = dz/dtM: Descent Rate [m/s]
# name 3 = prdM: Pressure, Strain Gauge [db]
# name 4 = tv290C: Temperature [ITS-90, deg C]
# name 5 = c0S/m: Conductivity [S/m]
# name 6 = depSM: Depth [salt water, m]
# name 7 = oxsatML/L: Oxygen Saturation [ml/l]
# name 8 = flSP: Fluorescence, Seapoint
# name 9 = potemp090C: Potential Temperature [ITS-90, deg C]
# name 10 = sal00: Salinity [PSU]
# name 11 = density00: Density [density, Kg/m^3]
# name 12 = oxsatML/L: Oxygen Saturation [ml/l]
# name 13 = flag: flag
# span 0 =        343,       1728       
# span 1 = 171.651511, 171.655518       
# span 2 =     -0.016,      1.834       
# span 3 =      3.122,    245.302       
# span 4 =    14.5770,    20.2132       
# span 5 =   4.313199,   4.985360       
# span 6 =      3.000,    244.000       
# span 7 =    5.10309,    5.71952       
# span 8 = 5.2765e-02, 7.9138e-01       
# span 9 =    14.5404,    20.2021       
# span 10 =    35.4301,    36.3917      
# span 11 =  1025.6707,  1027.5210      
# span 12 =    5.10302,    5.71968      
# span 13 = 0.0000e+00, 0.0000e+00      
# interval = meters: 1                  
# start_time = Jun 19 2012 15:36:45
# bad_flag = -9.990e-29
# sensor 0 = Frequency 0  temperature, 6161, 21-Oct-08
# sensor 1 = Frequency 1  conductivity, 6161, 21-Oct-08, cpcor = -9.5700e-08
# sensor 2 = Pressure Number
# sensor 3 = Extrnl Volt  0  Fluorometer, Seapoint, primary
# sensor 4 = Extrnl Volt  2  altimeter
# datcnv_date = Jun 19 2012 18:10:25, 7.17
# datcnv_in = D:\ACEX_ctd\brutos\MCTV027.hex D:\ACEX_ctd\arqconfig\AC6161.con
# datcnv_skipover = 1
# filter_date = Jun 19 2012 18:10:35, 7.17
# filter_in = D:\ACEX_ctd\dat cnv\MCTV027.cnv
# filter_low_pass_tc_A = 1.000
# filter_low_pass_tc_B = 0.150
# filter_low_pass_A_vars = prdM flSP
# filter_low_pass_B_vars = c0S/m
# alignctd_date = Jun 19 2012 18:10:57, 7.17
# alignctd_in = D:\ACEX_ctd\filter\MCTV027.cnv
# alignctd_adv = c0S/m -0.010                                                                                                                                                                                                        
# wildedit_date = Jun 19 2012 18:11:28, 7.17
# wildedit_in = D:\ACEX_ctd\align\MCTV027.cnv
# wildedit_pass1_nstd = 2.0
# wildedit_pass2_nstd = 20.0
# wildedit_pass2_mindelta = 1.000e+002
# wildedit_npoint = 1000
# wildedit_vars = dz/dtM prdM tv290C c0S/m oxsatML/L flSP
# wildedit_excl_bad_scans = yes
# celltm_date = Jun 19 2012 18:11:45, 7.17
# celltm_in = D:\ACEX_ctd\wildedit\MCTV027.cnv
# celltm_alpha = 0.0300, 0.0000
# celltm_tau = 7.0000, 0.0000
# celltm_temp_sensor_use_for_cond = primary, 
# loopedit_date = Jun 19 2012 18:11:57, 7.17
# loopedit_in = D:\ACEX_ctd\celltm\MCTV027.cnv
# loopedit_minVelocity = 0.250                                                                                            
# loopedit_surfaceSoak: minDepth = 5.0, maxDepth = 20, useDeckPress = 1                                                   
# loopedit_excl_bad_scans = yes
# Derive_date = Jun 19 2012 18:12:14, 7.17
# Derive_in = D:\ACEX_ctd\loopedit\MCTV027.cnv C:\Documents and Settings\Coleta\Desktop\Nova pasta\6161.con
# binavg_date = Jun 19 2012 18:12:23, 7.17
# binavg_in = D:\ACEX_ctd\derive\MCTV027.cnv
# binavg_bintype = meters
# binavg_binsize = 1
# binavg_excl_bad_scans = yes
# binavg_skipover = 0
# binavg_surface_bin = no, min = 0.000, max = 0.000, value = 0.000
# split_date = Jun 19 2012 18:12:36, 7.17
# split_in = D:\ACEX_ctd\binavg\MCTV027.cnv
# split_excl_bad_scans = yes
# file_type = ascii
*END*
        343 171.651511      0.086      3.122    19.8121   4.907198      3.000    5.14935 7.5759e-01    19.8115    36.1082  1025.6707    5.14929 0.0000e+00
        364 171.651571      0.315      4.084    19.7827   4.904497      4.000    5.15198 7.5653e-01    19.7819    36.1108  1025.6847    5.15201 0.0000e+00
        373 171.651597      0.436      5.047    19.7657   4.903582      5.000    5.15340 7.5330e-01    19.7648    36.1175  1025.6984    5.15342 0.0000e+00
        383 171.651625      0.432      6.224    19.7702   4.904632      6.000    5.15283 7.4643e-01    19.7691    36.1219  1025.7057    5.15286 0.0000e+00
        387 171.651638      0.798      7.079    19.7733   4.903580      7.000    5.15294 7.4382e-01    19.7720    36.1102  1025.6998    5.15292 0.0000e+00
        391 171.651650      0.928      7.988    19.7564   4.902600      8.000    5.15433 7.3523e-01    19.7549    36.1163  1025.7129    5.15434 0.0000e+00
        397 171.651666      0.768      9.069    19.7589   4.903191      9.000    5.15402 7.3913e-01    19.7572    36.1187  1025.7187    5.15404 0.0000e+00
        402 171.651681      0.742     10.103    19.7652   4.903726     10.000    5.15347 7.4811e-01    19.7634    36.1173  1025.7204    5.15347 0.0000e+00
        406 171.651694      0.873     11.048    19.7673   4.903747     11.000    5.15333 7.6682e-01    19.7652    36.1153  1025.7226    5.15334 0.0000e+00
        412 171.651709      0.831     12.125    19.7655   4.903662     12.000    5.15349 7.7282e-01    19.7633    36.1157  1025.7280    5.15349 0.0000e+00
        416 171.651723      0.783     13.211    19.7651   4.903713     13.000    5.15351 7.7009e-01    19.7626    36.1162  1025.7332    5.15353 0.0000e+00
        419 171.651731      1.015     13.972    19.7652   4.903792     14.000    5.15350 7.6202e-01    19.7627    36.1164  1025.7367    5.15350 0.0000e+00
        423 171.651743      1.146     14.835    19.7641   4.903579     15.000    5.15364 7.7529e-01    19.7614    36.1152  1025.7398    5.15364 0.0000e+00
        433 171.651769      0.299     16.375    19.7620   4.903597     16.000    5.15379 7.6176e-01    19.7590    36.1167  1025.7482    5.15380 0.0000e+00
        436 171.651780      0.731     17.259    19.7643   4.903867     17.000    5.15358 7.4302e-01    19.7612    36.1165  1025.7514    5.15358 0.0000e+00
        439 171.651789      1.145     18.056    19.7646   4.903916     18.000    5.15355 7.4088e-01    19.7613    36.1164  1025.7546    5.15356 0.0000e+00
        442 171.651798      1.359     18.883    19.7652   4.904096     19.000    5.15348 7.4895e-01    19.7617    36.1171  1025.7586    5.15348 0.0000e+00
        448 171.651815      0.883     20.075    19.7657   4.904098     20.000    5.15346 7.7678e-01    19.7620    36.1163  1025.7631    5.15346 0.0000e+00
        454 171.651833      0.587     21.330    19.7659   4.904289     21.000    5.15341 7.8066e-01    19.7620    36.1172  1025.7692    5.15341 0.0000e+00
        458 171.651842      0.905     22.177    19.7675   4.904444     22.000    5.15327 7.6393e-01    19.7634    36.1168  1025.7721    5.15327 0.0000e+00
        461 171.651851      1.216     22.959    19.7675   4.904584     23.000    5.15326 7.6275e-01    19.7632    36.1177  1025.7763    5.15325 0.0000e+00
        465 171.651864      1.094     23.896    19.7697   4.904827     24.000    5.15305 7.6888e-01    19.7653    36.1174  1025.7796    5.15305 0.0000e+00
        476 171.651895      0.082     25.569    19.7703   4.904964     25.000    5.15298 7.5986e-01    19.7656    36.1174  1025.7867    5.15299 0.0000e+00
        479 171.651904      0.724     26.371    19.7710   4.905110     26.000    5.15291 7.4460e-01    19.7662    36.1177  1025.7902    5.15291 0.0000e+00
        482 171.651912      1.161     27.157    19.7715   4.905183     27.000    5.15287 7.5232e-01    19.7665    36.1176  1025.7934    5.15287 0.0000e+00
        485 171.651920      1.403     27.982    19.7707   4.905082     28.000    5.15296 7.7776e-01    19.7656    36.1171  1025.7969    5.15296 0.0000e+00
        488 171.651931      1.274     28.941    19.7700   4.905140     29.000    5.15300 7.9138e-01    19.7647    36.1179  1025.8018    5.15300 0.0000e+00
        494 171.651948      0.763     30.083    19.7699   4.905133     30.000    5.15302 7.7322e-01    19.7644    36.1174  1025.8065    5.15302 0.0000e+00
        501 171.651968      0.560     31.258    19.7697   4.905166     31.000    5.15304 7.6042e-01    19.7639    36.1175  1025.8117    5.15304 0.0000e+00
        507 171.651984      0.679     32.312    19.7696   4.905180     32.000    5.15306 7.5243e-01    19.7636    36.1173  1025.8162    5.15306 0.0000e+00
        511 171.651996      0.877     33.253    19.7699   4.905205     33.000    5.15304 7.5779e-01    19.7638    36.1169  1025.8199    5.15304 0.0000e+00
        515 171.652008      0.959     34.283    19.7695   4.905165     34.000    5.15309 7.6073e-01    19.7632    36.1165  1025.8242    5.15309 0.0000e+00
        519 171.652019      1.013     35.264    19.7687   4.905154     35.000    5.15315 7.4938e-01    19.7622    36.1167  1025.8289    5.15316 0.0000e+00
        522 171.652028      1.145     36.156    19.7688   4.905207     36.000    5.15315 7.5046e-01    19.7622    36.1168  1025.8328    5.15315 0.0000e+00
        525 171.652037      1.279     36.957    19.7693   4.905520     37.000    5.15305 7.6353e-01    19.7624    36.1187  1025.8376    5.15305 0.0000e+00
        533 171.652060      0.602     38.196    19.7730   4.906263     38.000    5.15263 7.6175e-01    19.7659    36.1212  1025.8440    5.15262 0.0000e+00
        543 171.652089      0.420     39.685    19.7889   4.910405     39.000    5.15047 6.9980e-01    19.7816    36.1411  1025.8614    5.15049 0.0000e+00
        546 171.652097      1.012     40.500    19.8019   4.911993     40.000    5.14921 6.8201e-01    19.7944    36.1428  1025.8629    5.14920 0.0000e+00
        548 171.652103      1.451     41.291    19.8088   4.914070     41.000    5.14843 6.7236e-01    19.8012    36.1537  1025.8727    5.14821 0.0000e+00
        550 171.652108      1.728     42.052    19.8239   4.920255     42.000    5.14545 6.6624e-01    19.8161    36.1915  1025.9011    5.14563 0.0000e+00
        552 171.652115      1.834     42.816    19.8584   4.922950     43.000    5.14263 6.6625e-01    19.8505    36.1837  1025.8893    5.14258 0.0000e+00
        559 171.652136      0.875     44.080    19.8720   4.922983     44.000    5.14171 6.6266e-01    19.8638    36.1718  1025.8821    5.14166 0.0000e+00
        571 171.652170      0.295     45.683    19.8707   4.929620     45.000    5.14019 5.1563e-01    19.8623    36.2271  1025.9316    5.14010 0.0000e+00
        574 171.652179      0.862     46.510    19.9567   4.946641     46.000    5.12990 4.5886e-01    19.9480    36.2931  1025.9627    5.12995 0.0000e+00
        577 171.652187      1.244     47.318    20.0331   4.955001     47.000    5.12271 4.1133e-01    20.0243    36.2956  1025.9478    5.12265 0.0000e+00
        579 171.652193      1.478     48.119    20.0637   4.957754     48.000    5.12011 3.7321e-01    20.0548    36.2915  1025.9400    5.11988 0.0000e+00
        582 171.652203      1.478     49.012    20.0907   4.963329     49.000    5.11675 3.3281e-01    20.0816    36.3138  1025.9537    5.11667 0.0000e+00
        587 171.652217      0.992     50.135    20.1136   4.965750     50.000    5.11465 2.8168e-01    20.1042    36.3135  1025.9523    5.11453 0.0000e+00
        594 171.652236      0.591     51.319    20.1212   4.967396     51.000    5.11372 2.4337e-01    20.1116    36.3200  1025.9604    5.11361 0.0000e+00
        599 171.652251      0.733     52.271    20.1223   4.967648     52.000    5.11358 2.3117e-01    20.1125    36.3209  1025.9649    5.11349 0.0000e+00
        606 171.652270      0.633     53.421    20.1230   4.967888     53.000    5.11347 2.2252e-01    20.1130    36.3218  1025.9704    5.11339 0.0000e+00
        611 171.652285      0.710     54.470    20.1257   4.968923     54.000    5.11304 2.1650e-01    20.1155    36.3276  1025.9787    5.11297 0.0000e+00
        614 171.652295      0.995     55.337    20.1332   4.972599     55.000    5.11163 2.0872e-01    20.1229    36.3510  1025.9983    5.11155 0.0000e+00
        617 171.652304      1.170     56.206    20.1608   4.978642     56.000    5.10824 2.0013e-01    20.1503    36.3765  1026.0141    5.10819 0.0000e+00
        622 171.652317      1.066     57.199    20.1991   4.983737     57.000    5.10441 1.8622e-01    20.1884    36.3849  1026.0146    5.10435 0.0000e+00
        627 171.652332      0.779     58.300    20.2129   4.985360     58.000    5.10309 1.6859e-01    20.2020    36.3858  1026.0164    5.10302 0.0000e+00
        633 171.652349      0.701     59.370    20.2132   4.985184     59.000    5.10312 1.5919e-01    20.2021    36.3838  1026.0194    5.10305 0.0000e+00
        638 171.652364      0.757     60.424    20.2058   4.984401     60.000    5.10380 1.5433e-01    20.1945    36.3833  1026.0257    5.10376 0.0000e+00
        643 171.652378      0.812     61.482    20.1967   4.983183     61.000    5.10476 1.5422e-01    20.1851    36.3809  1026.0309    5.10469 0.0000e+00
        646 171.652388      0.967     62.401    20.1922   4.983506     62.000    5.10494 1.5808e-01    20.1805    36.3870  1026.0407    5.10493 0.0000e+00
        649 171.652397      1.180     63.201    20.1889   4.983208     63.000    5.10527 1.6093e-01    20.1771    36.3871  1026.0452    5.10523 0.0000e+00
        653 171.652408      1.173     64.060    20.1896   4.983361     64.000    5.10518 1.6357e-01    20.1776    36.3875  1026.0490    5.10516 0.0000e+00
        665 171.652443      0.046     65.744    20.1854   4.982660     65.000    5.10564 1.5591e-01    20.1731    36.3847  1026.0553    5.10563 0.0000e+00
        668 171.652452      0.756     66.588    20.1774   4.981418     66.000    5.10650 1.5461e-01    20.1650    36.3811  1026.0584    5.10649 0.0000e+00
        671 171.652460      1.181     67.416    20.1723   4.980837     67.000    5.10697 1.5371e-01    20.1597    36.3805  1026.0629    5.10699 0.0000e+00
        674 171.652469      1.413     68.255    20.1655   4.979011     68.000    5.10791 1.5229e-01    20.1528    36.3710  1026.0611    5.10791 0.0000e+00
        678 171.652480      1.298     69.228    20.1478   4.977702     69.000    5.10945 1.5076e-01    20.1349    36.3752  1026.0733    5.10945 0.0000e+00
        682 171.652492      0.995     70.273    20.1447   4.977946     70.000    5.10960 1.4663e-01    20.1315    36.3795  1026.0820    5.10961 0.0000e+00
        688 171.652508      0.799     71.285    20.1472   4.978712     71.000    5.10925 1.4085e-01    20.1339    36.3832  1026.0885    5.10926 0.0000e+00
        695 171.652530      0.529     72.444    20.1546   4.979772     72.000    5.10851 1.4147e-01    20.1410    36.3851  1026.0931    5.10851 0.0000e+00
        704 171.652555      0.434     73.836    20.1608   4.981283     73.000    5.10771 1.3637e-01    20.1470    36.3917  1026.1025    5.10773 0.0000e+00
        707 171.652564      0.840     74.718    20.1638   4.980705     74.000    5.10765 1.3861e-01    20.1498    36.3840  1026.0996    5.10768 0.0000e+00
        709 171.652570      1.245     75.497    20.1519   4.978062     75.000    5.10918 1.3970e-01    20.1378    36.3723  1026.0973    5.10915 0.0000e+00
        711 171.652576      1.566     76.264    20.1326   4.975852     76.000    5.11098 1.3992e-01    20.1184    36.3705  1026.1045    5.11101 0.0000e+00
        714 171.652583      1.715     77.015    20.1164   4.974172     77.000    5.11255 1.4012e-01    20.1021    36.3704  1026.1120    5.11254 0.0000e+00
        721 171.652604      0.799     78.283    20.0942   4.972043     78.000    5.11455 1.3560e-01    20.0796    36.3717  1026.1244    5.11460 0.0000e+00
        732 171.652637      0.329     79.812    20.0433   4.962896     79.000    5.12035 1.2341e-01    20.0284    36.3398  1026.1203    5.12035 0.0000e+00
        736 171.652647      0.795     80.721    20.0235   4.962543     80.000    5.12173 1.2430e-01    20.0085    36.3537  1026.1401    5.12179 0.0000e+00
        739 171.652655      1.127     81.551    20.0172   4.960946     81.000    5.12256 1.2113e-01    20.0021    36.3456  1026.1393    5.12263 0.0000e+00
        741 171.652663      1.392     82.357    20.0010   4.958404     82.000    5.12433 1.1849e-01    19.9856    36.3385  1026.1417    5.12438 0.0000e+00
        744 171.652671      1.529     83.141    19.9793   4.953013     83.000    5.12700 1.1547e-01    19.9638    36.3125  1026.1310    5.12722 0.0000e+00
        751 171.652690      0.794     84.383    19.8793   4.942858     84.000    5.13649 1.1123e-01    19.8637    36.3147  1026.1648    5.13662 0.0000e+00
        760 171.652716      0.374     85.797    19.8104   4.927611     85.000    5.14512 1.0538e-01    19.7946    36.2478  1026.1381    5.14520 0.0000e+00
        763 171.652725      0.908     86.543    19.7115   4.912519     86.000    5.15576 1.0433e-01    19.6956    36.2082  1026.1373    5.15584 0.0000e+00
        766 171.652733      1.260     87.342    19.5849   4.898803     87.000    5.16791 1.0427e-01    19.5689    36.2037  1026.1707    5.16808 0.0000e+00
        770 171.652747      1.055     88.360    19.4848   4.890324     88.000    5.17692 1.0253e-01    19.4687    36.2197  1026.2137    5.17721 0.0000e+00
        777 171.652767      0.547     89.628    19.3943   4.877469     89.000    5.18661 9.6285e-02    19.3780    36.1907  1026.2208    5.18682 0.0000e+00
        782 171.652781      0.728     90.639    19.3418   4.870091     90.000    5.19206 9.4901e-02    19.3253    36.1744  1026.2265    5.19240 0.0000e+00
        786 171.652791      0.963     91.524    19.2741   4.860634     91.000    5.19924 9.3472e-02    19.2576    36.1539  1026.2324    5.19959 0.0000e+00
        790 171.652803      1.066     92.428    19.2060   4.851443     92.000    5.20664 9.1172e-02    19.1893    36.1360  1026.2403    5.20676 0.0000e+00
        794 171.652816      0.926     93.434    19.1586   4.848312     93.000    5.21058 8.6768e-02    19.1417    36.1506  1026.2682    5.21092 0.0000e+00
        801 171.652835      0.681     94.563    19.1239   4.843559     94.000    5.21439 8.3314e-02    19.1068    36.1406  1026.2745    5.21462 0.0000e+00
        807 171.652852      0.624     95.688    19.0899   4.837375     95.000    5.21833 8.2950e-02    19.0727    36.1179  1026.2709    5.21863 0.0000e+00
        811 171.652864      0.863     96.585    19.0076   4.820680     96.000    5.22861 8.3964e-02    18.9903    36.0491  1026.2434    5.22883 0.0000e+00
        815 171.652875      1.026     97.494    18.8511   4.805185     97.000    5.24384 8.4189e-02    18.8337    36.0547  1026.2920    5.24403 0.0000e+00
        819 171.652889      0.909     98.545    18.7813   4.799564     98.000    5.25010 8.3934e-02    18.7638    36.0678  1026.3246    5.25051 0.0000e+00
        824 171.652903      0.806     99.580    18.6791   4.783937     99.000    5.26161 8.3003e-02    18.6615    36.0247  1026.3223    5.26197 0.0000e+00
        829 171.652916      0.884    100.509    18.5567   4.770910    100.000    5.27399 8.3229e-02    18.5390    36.0211  1026.3547    5.27425 0.0000e+00
        834 171.652932      0.780    101.583    18.4930   4.767587    101.000    5.27936 8.3103e-02    18.4751    36.0483  1026.3964    5.27975 0.0000e+00
        840 171.652950      0.616    102.793    18.4789   4.766334    102.000    5.28079 8.5803e-02    18.4608    36.0496  1026.4063    5.28112 0.0000e+00
        844 171.652960      0.858    103.706    18.4582   4.762828    103.000    5.28333 9.0428e-02    18.4400    36.0376  1026.4063    5.28356 0.0000e+00
        847 171.652969      1.158    104.478    18.4280   4.760302    104.000    5.28608 9.3081e-02    18.4096    36.0423  1026.4210    5.28643 0.0000e+00
        851 171.652979      1.236    105.337    18.3859   4.754155    105.000    5.29088 9.4044e-02    18.3675    36.0266  1026.4233    5.29114 0.0000e+00
        859 171.653004      0.436    106.720    18.3182   4.747354    106.000    5.29767 9.0055e-02    18.2996    36.0276  1026.4473    5.29790 0.0000e+00
        865 171.653022      0.580    107.803    18.2537   4.734424    107.000    5.30565 8.9173e-02    18.2349    35.9736  1026.4270    5.30610 0.0000e+00
        869 171.653031      1.009    108.584    18.1230   4.716673    108.000    5.32042 8.9161e-02    18.1042    35.9365  1026.4348    5.32048 0.0000e+00
        873 171.653043      1.064    109.537    18.0373   4.714942    109.000    5.32690 8.7882e-02    18.0184    35.9967  1026.5066    5.32725 0.0000e+00
        878 171.653060      0.746    110.695    18.0335   4.714597    110.000    5.32735 8.5274e-02    18.0144    35.9967  1026.5126    5.32764 0.0000e+00
        883 171.653073      0.772    111.705    18.0095   4.710592    111.000    5.33025 8.6531e-02    17.9902    35.9831  1026.5126    5.33051 0.0000e+00
        887 171.653085      0.946    112.641    17.9784   4.706851    112.000    5.33358 8.7373e-02    17.9590    35.9780  1026.5205    5.33383 0.0000e+00
        891 171.653097      0.971    113.608    17.9358   4.699262    113.000    5.33886 8.6965e-02    17.9163    35.9500  1026.5140    5.33906 0.0000e+00
        896 171.653110      0.924    114.570    17.8605   4.690773    114.000    5.34670 8.4139e-02    17.8408    35.9432  1026.5317    5.34697 0.0000e+00
        901 171.653126      0.806    115.567    17.7822   4.680641    115.000    5.35531 7.9880e-02    17.7624    35.9247  1026.5413    5.35558 0.0000e+00
        909 171.653147      0.541    116.736    17.6438   4.665693    116.000    5.36976 7.7395e-02    17.6239    35.9176  1026.5752    5.37002 0.0000e+00
        915 171.653166      0.586    117.900    17.6004   4.661892    117.000    5.37404 8.0698e-02    17.5803    35.9227  1026.5949    5.37434 0.0000e+00
        919 171.653177      0.843    118.849    17.5785   4.659518    118.000    5.37631 8.0056e-02    17.5584    35.9211  1026.6032    5.37663 0.0000e+00
        922 171.653187      1.116    119.707    17.5586   4.654240    119.000    5.37945 7.7469e-02    17.5383    35.8928  1026.5902    5.37961 0.0000e+00
        926 171.653196      1.252    120.626    17.4988   4.640766    120.000    5.38759 7.5294e-02    17.4785    35.8286  1026.5597    5.38787 0.0000e+00
        929 171.653206      1.183    121.596    17.3053   4.617066    121.000    5.40890 7.3333e-02    17.2849    35.7938  1026.5846    5.40913 0.0000e+00
        933 171.653217      1.101    122.473    17.2045   4.612049    122.000    5.41778 7.2054e-02    17.1841    35.8391  1026.6477    5.41819 0.0000e+00
        942 171.653245      0.418    123.795    17.1736   4.610898    123.000    5.42054 7.1293e-02    17.1530    35.8560  1026.6739    5.42087 0.0000e+00
        951 171.653269      0.493    125.125    17.1552   4.601988    124.000    5.42446 6.9575e-02    17.1343    35.7942  1026.6368    5.42483 0.0000e+00
        953 171.653275      1.064    125.826    17.0814   4.593990    125.000    5.43263 6.8630e-02    17.0605    35.7896  1026.6542    5.43274 0.0000e+00
        955 171.653282      1.491    126.572    17.0298   4.591413    126.000    5.43704 6.7700e-02    17.0088    35.8126  1026.6876    5.43741 0.0000e+00
        958 171.653291      1.548    127.471    16.9988   4.587336    127.000    5.44069 6.6353e-02    16.9777    35.8041  1026.6925    5.44096 0.0000e+00
        964 171.653307      0.927    128.661    16.9440   4.581324    128.000    5.44661 6.4627e-02    16.9228    35.7998  1026.7076    5.44689 0.0000e+00
        969 171.653323      0.658    129.771    16.8954   4.576655    129.000    5.45171 6.3368e-02    16.8740    35.8017  1026.7257    5.45197 0.0000e+00
        974 171.653337      0.812    130.700    16.8809   4.575760    130.000    5.45310 6.3306e-02    16.8594    35.8065  1026.7368    5.45335 0.0000e+00
        980 171.653355      0.698    131.760    16.8727   4.574846    131.000    5.45406 6.2895e-02    16.8510    35.8053  1026.7426    5.45426 0.0000e+00
        987 171.653375      0.547    132.981    16.8598   4.573315    132.000    5.45555 6.2440e-02    16.8379    35.8029  1026.7492    5.45571 0.0000e+00
        992 171.653387      0.804    133.952    16.8535   4.572821    133.000    5.45619 6.2671e-02    16.8314    35.8038  1026.7557    5.45634 0.0000e+00
        995 171.653396      1.088    134.774    16.8488   4.572215    134.000    5.45676 6.3335e-02    16.8266    35.8024  1026.7594    5.45690 0.0000e+00
        998 171.653405      1.261    135.603    16.8435   4.571555    135.000    5.45738 6.4032e-02    16.8212    35.8010  1026.7631    5.45750 0.0000e+00
       1002 171.653418      1.059    136.571    16.8372   4.571233    136.000    5.45798 6.4153e-02    16.8147    35.8034  1026.7708    5.45809 0.0000e+00
       1012 171.653447      0.195    138.163    16.8365   4.571280    137.000    5.45806 6.3079e-02    16.8138    35.8038  1026.7782    5.45815 0.0000e+00
       1016 171.653457      0.744    138.961    16.8328   4.570932    138.000    5.45848 6.3778e-02    16.8100    35.8037  1026.7826    5.45854 0.0000e+00
       1018 171.653465      1.170    139.710    16.8321   4.571179    139.000    5.45845 6.4313e-02    16.8091    35.8062  1026.7880    5.45854 0.0000e+00
       1022 171.653475      1.316    140.583    16.8310   4.570407    140.000    5.45881 6.4729e-02    16.8078    35.8001  1026.7874    5.45886 0.0000e+00
       1029 171.653494      0.679    141.846    16.8210   4.569536    141.000    5.45984 6.4150e-02    16.7977    35.8009  1026.7959    5.45989 0.0000e+00
       1035 171.653512      0.594    142.992    16.8157   4.568643    142.000    5.46052 6.3367e-02    16.7922    35.7973  1026.7995    5.46058 0.0000e+00
       1038 171.653523      0.910    143.849    16.8047   4.567173    143.000    5.46183 6.4314e-02    16.7810    35.7939  1026.8033    5.46186 0.0000e+00
       1042 171.653534      1.063    144.721    16.7969   4.566766    144.000    5.46254 6.4619e-02    16.7731    35.7969  1026.8113    5.46259 0.0000e+00
       1048 171.653549      0.855    145.757    16.7929   4.566498    145.000    5.46294 6.4015e-02    16.7690    35.7977  1026.8174    5.46298 0.0000e+00
       1055 171.653571      0.468    147.070    16.7912   4.566365    146.000    5.46313 6.3038e-02    16.7671    35.7975  1026.8234    5.46317 0.0000e+00
       1059 171.653583      0.767    147.966    16.7901   4.566287    147.000    5.46327 6.3789e-02    16.7657    35.7975  1026.8276    5.46329 0.0000e+00
       1063 171.653593      1.082    148.785    16.7895   4.566274    148.000    5.46332 6.4962e-02    16.7650    35.7976  1026.8314    5.46336 0.0000e+00
       1067 171.653606      1.015    149.780    16.7853   4.565558    149.000    5.46387 6.5176e-02    16.7607    35.7946  1026.8345    5.46389 0.0000e+00
       1073 171.653624      0.638    151.029    16.7784   4.564940    150.000    5.46460 6.3905e-02    16.7536    35.7949  1026.8419    5.46462 0.0000e+00
       1078 171.653637      0.755    152.074    16.7758   4.564377    151.000    5.46497 6.2958e-02    16.7508    35.7918  1026.8447    5.46500 0.0000e+00
       1081 171.653646      1.048    152.931    16.7680   4.563503    152.000    5.46583 6.2975e-02    16.7429    35.7908  1026.8495    5.46587 0.0000e+00
       1084 171.653655      1.261    153.766    16.7631   4.561251    153.000    5.46679 6.3315e-02    16.7378    35.7750  1026.8423    5.46691 0.0000e+00
       1087 171.653664      1.274    154.631    16.7104   4.551347    154.000    5.47381 6.3350e-02    16.6851    35.7345  1026.8276    5.47386 0.0000e+00
       1095 171.653687      0.599    155.891    16.5670   4.536442    155.000    5.48922 6.2237e-02    16.5417    35.7306  1026.8643    5.48933 0.0000e+00
       1103 171.653710      0.480    157.173    16.4567   4.523592    156.000    5.50156 6.0997e-02    16.4312    35.7151  1026.8841    5.50171 0.0000e+00
       1107 171.653722      0.841    158.106    16.4281   4.522522    157.000    5.50406 6.0722e-02    16.4025    35.7308  1026.9071    5.50426 0.0000e+00
       1110 171.653731      1.093    159.023    16.4229   4.522205    158.000    5.50459 6.0760e-02    16.3972    35.7323  1026.9135    5.50478 0.0000e+00
       1114 171.653740      1.226    159.944    16.4214   4.522142    159.000    5.50477 6.1178e-02    16.3955    35.7327  1026.9182    5.50492 0.0000e+00
       1117 171.653749      1.297    160.834    16.4199   4.522145    160.000    5.50491 6.1088e-02    16.3938    35.7338  1026.9233    5.50505 0.0000e+00
       1120 171.653758      1.308    161.712    16.4198   4.522283    161.000    5.50489 6.0650e-02    16.3937    35.7347  1026.9279    5.50503 0.0000e+00
       1125 171.653774      0.938    162.763    16.4156   4.521618    162.000    5.50546 5.9620e-02    16.3893    35.7322  1026.9316    5.50557 0.0000e+00
       1135 171.653803      0.215    164.285    16.4105   4.521318    163.000    5.50598 5.8088e-02    16.3840    35.7335  1026.9404    5.50607 0.0000e+00
       1139 171.653815      0.722    165.174    16.4080   4.520817    164.000    5.50636 5.8583e-02    16.3812    35.7310  1026.9430    5.50644 0.0000e+00
       1143 171.653824      1.061    166.069    16.4044   4.520499    165.000    5.50675 5.8813e-02    16.3775    35.7310  1026.9479    5.50682 0.0000e+00
       1146 171.653834      1.215    167.015    16.4019   4.520248    166.000    5.50704 5.9510e-02    16.3749    35.7306  1026.9523    5.50710 0.0000e+00
       1149 171.653843      1.246    167.948    16.3997   4.520143    167.000    5.50725 5.9732e-02    16.3725    35.7313  1026.9574    5.50731 0.0000e+00
       1152 171.653852      1.279    168.845    16.3982   4.519978    168.000    5.50744 6.0313e-02    16.3709    35.7308  1026.9613    5.50749 0.0000e+00
       1156 171.653862      1.250    169.710    16.3961   4.519841    169.000    5.50767 6.1072e-02    16.3686    35.7312  1026.9660    5.50771 0.0000e+00
       1164 171.653886      0.521    171.026    16.3764   4.516642    170.000    5.51015 5.8537e-02    16.3488    35.7199  1026.9677    5.51021 0.0000e+00
       1172 171.653908      0.496    172.282    16.3338   4.510339    171.000    5.51535 5.8613e-02    16.3060    35.7018  1026.9693    5.51543 0.0000e+00
       1175 171.653918      0.965    173.100    16.3064   4.508275    172.000    5.51817 5.9687e-02    16.2785    35.7076  1026.9839    5.51819 0.0000e+00
       1178 171.653928      1.171    174.017    16.2960   4.507546    173.000    5.51914 5.9510e-02    16.2680    35.7101  1026.9923    5.51924 0.0000e+00
       1182 171.653939      1.135    175.015    16.2837   4.505594    174.000    5.52075 5.8354e-02    16.2555    35.7034  1026.9944    5.52079 0.0000e+00
       1186 171.653949      1.095    175.945    16.2716   4.505357    175.000    5.52170 5.7608e-02    16.2433    35.7118  1027.0078    5.52183 0.0000e+00
       1190 171.653961      1.040    176.924    16.2602   4.501215    176.000    5.52382 5.7165e-02    16.2317    35.6848  1026.9941    5.52397 0.0000e+00
       1195 171.653977      0.795    178.023    16.1290   4.481218    177.000    5.54026 5.6063e-02    16.1006    35.6240  1026.9830    5.54030 0.0000e+00
       1201 171.653992      0.740    179.047    16.0122   4.472185    178.000    5.55204 5.4955e-02    15.9837    35.6478  1027.0330    5.55226 0.0000e+00
       1206 171.654009      0.721    180.111    15.9713   4.468874    179.000    5.55628 5.4549e-02    15.9427    35.6546  1027.0524    5.55651 0.0000e+00
       1212 171.654024      0.759    181.141    15.9490   4.464890    180.000    5.55929 5.4876e-02    15.9203    35.6386  1027.0498    5.55950 0.0000e+00
       1216 171.654037      0.852    182.135    15.9027   4.460354    181.000    5.56438 5.5126e-02    15.8738    35.6393  1027.0655    5.56457 0.0000e+00
       1220 171.654049      0.923    183.136    15.8852   4.459291    182.000    5.56611 5.5686e-02    15.8562    35.6451  1027.0785    5.56630 0.0000e+00
       1224 171.654061      0.968    184.133    15.8786   4.459043    183.000    5.56672 5.5828e-02    15.8495    35.6484  1027.0869    5.56691 0.0000e+00
       1228 171.654071      1.061    185.029    15.8773   4.458971    184.000    5.56689 5.5763e-02    15.8481    35.6486  1027.0912    5.56704 0.0000e+00
       1232 171.654082      1.107    185.928    15.8758   4.458913    185.000    5.56706 5.5808e-02    15.8464    35.6490  1027.0959    5.56719 0.0000e+00
       1238 171.654100      0.691    187.159    15.8738   4.458809    186.000    5.56729 5.5374e-02    15.8442    35.6495  1027.1022    5.56741 0.0000e+00
       1244 171.654116      0.641    188.256    15.8725   4.458762    187.000    5.56744 5.5872e-02    15.8428    35.6497  1027.1075    5.56753 0.0000e+00
       1247 171.654126      0.969    189.074    15.8719   4.458768    188.000    5.56751 5.6983e-02    15.8420    35.6500  1027.1114    5.56759 0.0000e+00
       1251 171.654139      1.033    190.022    15.8715   4.458811    189.000    5.56755 5.7026e-02    15.8415    35.6504  1027.1160    5.56762 0.0000e+00
       1258 171.654157      0.665    191.245    15.8707   4.458796    190.000    5.56765 5.6312e-02    15.8405    35.6505  1027.1216    5.56771 0.0000e+00
       1262 171.654171      0.758    192.309    15.8708   4.458883    191.000    5.56764 5.6028e-02    15.8404    35.6508  1027.1266    5.56769 0.0000e+00
       1266 171.654181      0.986    193.220    15.8706   4.458950    192.000    5.56765 5.6233e-02    15.8400    35.6512  1027.1309    5.56770 0.0000e+00
       1269 171.654190      1.206    194.041    15.8708   4.459009    193.000    5.56764 5.6835e-02    15.8401    35.6512  1027.1345    5.56768 0.0000e+00
       1272 171.654199      1.281    194.877    15.8713   4.459258    194.000    5.56754 5.7319e-02    15.8405    35.6527  1027.1392    5.56757 0.0000e+00
       1281 171.654225      0.454    196.246    15.8745   4.459626    195.000    5.56720 5.7101e-02    15.8435    35.6525  1027.1443    5.56722 0.0000e+00
       1288 171.654246      0.559    197.459    15.8749   4.459791    196.000    5.56713 5.7335e-02    15.8437    35.6531  1027.1500    5.56716 0.0000e+00
       1291 171.654254      1.051    198.234    15.8754   4.459973    197.000    5.56705 5.7233e-02    15.8440    35.6541  1027.1541    5.56707 0.0000e+00
       1294 171.654262      1.426    199.003    15.8764   4.460093    198.000    5.56696 5.7062e-02    15.8449    35.6539  1027.1571    5.56697 0.0000e+00
       1298 171.654274      1.313    199.961    15.8768   4.460156    199.000    5.56693 5.6907e-02    15.8451    35.6537  1027.1611    5.56693 0.0000e+00
       1304 171.654291      0.669    201.154    15.8768   4.460208    200.000    5.56692 5.6544e-02    15.8450    35.6538  1027.1663    5.56693 0.0000e+00
       1316 171.654327      0.564    202.082    15.8769   4.460270    201.000    5.56691 5.6855e-02    15.8449    35.6538  1027.1705    5.56692 0.0000e+00
       1443 171.654694      0.342    203.252    15.8781   4.460418    202.000    5.56679 5.7555e-02    15.8459    35.6536  1027.1751    5.56679 0.0000e+00
       1496 171.654846      0.300    204.635    15.8779   4.459719    203.000    5.56700 5.7704e-02    15.8455    35.6469  1027.1762    5.56704 0.0000e+00
       1497 171.654849      0.779    205.424    15.8585   4.456081    204.000    5.56968 5.7809e-02    15.8260    35.6315  1027.1723    5.56970 0.0000e+00
       1499 171.654856      1.212    206.143    15.8351   4.453109    205.000    5.57251 5.7723e-02    15.8026    35.6256  1027.1763    5.57248 0.0000e+00
       1502 171.654863      1.508    206.837    15.8106   4.451223    206.000    5.57497 5.7588e-02    15.7780    35.6305  1027.1888    5.57501 0.0000e+00
       1515 171.654903      0.541    208.277    15.7845   4.449282    207.000    5.57767 5.7038e-02    15.7517    35.6360  1027.2054    5.57771 0.0000e+00
       1524 171.654929      0.801    209.458    15.7798   4.448937    208.000    5.57816 5.7070e-02    15.7468    35.6367  1027.2123    5.57821 0.0000e+00
       1528 171.654938      1.091    210.337    15.7764   4.448530    209.000    5.57856 5.7194e-02    15.7433    35.6358  1027.2162    5.57861 0.0000e+00
       1531 171.654947      1.247    211.202    15.7719   4.447257    210.000    5.57931 5.7102e-02    15.7387    35.6280  1027.2151    5.57937 0.0000e+00
       1534 171.654956      1.310    212.032    15.7520   4.443470    211.000    5.58214 5.7184e-02    15.7186    35.6117  1027.2108    5.58213 0.0000e+00
       1542 171.654979      0.701    213.196    15.7233   4.441933    212.000    5.58486 5.7318e-02    15.6898    35.6232  1027.2314    5.58491 0.0000e+00
       1554 171.655015      0.290    214.730    15.7116   4.440723    213.000    5.58621 5.6282e-02    15.6779    35.6223  1027.2401    5.58624 0.0000e+00
       1556 171.655021      0.921    215.482    15.7058   4.440668    214.000    5.58666 5.6638e-02    15.6719    35.6268  1027.2483    5.58674 0.0000e+00
       1559 171.655029      1.287    216.251    15.7028   4.439332    215.000    5.58736 5.6643e-02    15.6688    35.6171  1027.2449    5.58739 0.0000e+00
       1562 171.655038      1.451    217.091    15.6867   4.437399    216.000    5.58923 5.6652e-02    15.6526    35.6139  1027.2498    5.58929 0.0000e+00
       1566 171.655050      1.163    218.088    15.6595   4.433840    217.000    5.59253 5.6460e-02    15.6253    35.6060  1027.2544    5.59258 0.0000e+00
       1574 171.655071      0.514    219.384    15.6242   4.430292    218.000    5.59644 5.5748e-02    15.5898    35.6055  1027.2678    5.59652 0.0000e+00
       1579 171.655088      0.639    220.410    15.5821   4.424427    219.000    5.60162 5.5063e-02    15.5476    35.5902  1027.2703    5.60173 0.0000e+00
       1584 171.655101      0.833    221.358    15.5486   4.421773    220.000    5.60517 5.4798e-02    15.5140    35.5962  1027.2867    5.60526 0.0000e+00
       1589 171.655115      0.850    222.356    15.5405   4.421428    221.000    5.60593 5.4756e-02    15.5058    35.5999  1027.2959    5.60603 0.0000e+00
       1593 171.655127      0.893    223.297    15.5375   4.421203    222.000    5.60626 5.4559e-02    15.5027    35.6002  1027.3009    5.60635 0.0000e+00
       1598 171.655142      0.855    224.309    15.5341   4.420888    223.000    5.60666 5.4528e-02    15.4992    35.6000  1027.3060    5.60673 0.0000e+00
       1605 171.655161      0.592    225.582    15.5319   4.420839    224.000    5.60687 5.4608e-02    15.4968    35.6010  1027.3129    5.60694 0.0000e+00
       1609 171.655173      0.792    226.552    15.5317   4.420704    225.000    5.60696 5.4696e-02    15.4964    35.5996  1027.3161    5.60701 0.0000e+00
       1611 171.655180      1.128    227.323    15.5299   4.420593    226.000    5.60715 5.5240e-02    15.4944    35.6000  1027.3202    5.60721 0.0000e+00
       1614 171.655188      1.403    228.093    15.5282   4.420174    227.000    5.60744 5.5468e-02    15.4926    35.5974  1027.3220    5.60749 0.0000e+00
       1622 171.655210      0.691    229.309    15.5175   4.419131    228.000    5.60864 5.4941e-02    15.4818    35.5972  1027.3297    5.60869 0.0000e+00
       1632 171.655240      0.349    230.810    15.5074   4.417341    229.000    5.61004 5.4744e-02    15.4715    35.5895  1027.3327    5.61008 0.0000e+00
       1635 171.655248      0.927    231.579    15.4979   4.416840    230.000    5.61098 5.5437e-02    15.4618    35.5933  1027.3412    5.61102 0.0000e+00
       1637 171.655256      1.318    232.347    15.4957   4.416704    231.000    5.61119 5.5649e-02    15.4595    35.5938  1027.3455    5.61124 0.0000e+00
       1640 171.655264      1.445    233.219    15.4899   4.415178    232.000    5.61214 5.5590e-02    15.4536    35.5849  1027.3437    5.61219 0.0000e+00
       1644 171.655276      1.179    234.215    15.4655   4.412117    233.000    5.61507 5.5113e-02    15.4291    35.5789  1027.3491    5.61512 0.0000e+00
       1650 171.655293      0.740    235.336    15.4217   4.405505    234.000    5.62069 5.4021e-02    15.3852    35.5583  1027.3482    5.62074 0.0000e+00
       1658 171.655316      0.487    236.594    15.3269   4.395844    235.000    5.63131 5.3150e-02    15.2904    35.5560  1027.3736    5.63145 0.0000e+00
       1663 171.655331      0.698    237.605    15.3038   4.394071    236.000    5.63375 5.3127e-02    15.2671    35.5605  1027.3867    5.63390 0.0000e+00
       1667 171.655341      0.985    238.464    15.2915   4.386847    237.000    5.63667 5.3191e-02    15.2547    35.5058  1027.3512    5.63717 0.0000e+00
       1670 171.655351      1.153    239.338    15.1373   4.363188    238.000    5.65730 5.3203e-02    15.1006    35.4301  1027.3317    5.65723 0.0000e+00
       1675 171.655364      1.013    240.337    14.9568   4.348922    239.000    5.67632 5.3525e-02    14.9203    35.4632  1027.4022    5.67660 0.0000e+00
       1681 171.655381      0.724    241.437    14.8559   4.339564    240.000    5.68758 5.3542e-02    14.8194    35.4688  1027.4339    5.68794 0.0000e+00
       1686 171.655398      0.673    242.445    14.7824   4.331756    241.000    5.69612 5.3092e-02    14.7458    35.4639  1027.4509    5.69655 0.0000e+00
       1693 171.655416      0.653    243.349    14.7050   4.323339    242.000    5.70538 5.2939e-02    14.6684    35.4567  1027.4666    5.70570 0.0000e+00
       1705 171.655452      0.247    244.501    14.6393   4.316929    243.000    5.71299 5.2765e-02    14.6026    35.4572  1027.4867    5.71326 0.0000e+00
       1728 171.655518     -0.016    245.302    14.5770   4.313199    244.000    5.71952 5.4485e-02    14.5404    35.4794  1027.5210    5.71968 0.0000e+00
