* Sea-Bird SBE 19plus V2 Data File:
* FileName = D:\ACEX\brutos\MCTV017.hex
* Software Version Seasave V 7.17
* Temperature SN = 6161
* Conductivity SN = 6161
* System UpLoad Time = Jun 16 2012 18:45:39
** H38 
** NHo Cruzeiro do Sul 
** 222 
** MCTV ACEx 
**   017
**   29 10.84 S
**   048 40.26 W
**   16/06/2012 21:45 Z
**   95
** 19P51959-6161 
**   CT Fernandes
# nquan = 14
# nvalues = 83                          
# units = specified
# name 0 = scan: Scan Count
# name 1 = timeJ: Julian Days
# name 2 = dz/dtM: Descent Rate [m/s]
# name 3 = prdM: Pressure, Strain Gauge [db]
# name 4 = tv290C: Temperature [ITS-90, deg C]
# name 5 = c0S/m: Conductivity [S/m]
# name 6 = depSM: Depth [salt water, m]
# name 7 = flSP: Fluorescence, Seapoint
# name 8 = potemp090C: Potential Temperature [ITS-90, deg C]
# name 9 = sal00: Salinity [PSU]
# name 10 = density00: Density [density, Kg/m^3]
# name 11 = sigma-é00: Density [sigma-theta, Kg/m^3]
# name 12 = nbin: number of scans per bin
# name 13 = flag: flag
# span 0 =        522,       1424       
# span 1 = 168.783210, 168.785820       
# span 2 =      0.177,      0.897       
# span 3 =      5.140,     87.419       
# span 4 =    18.0066,    21.2622       
# span 5 =   4.302645,   5.080702       
# span 6 =      5.000,     87.000       
# span 7 = 9.6620e-02, 1.1350e+00       
# span 8 =    18.0050,    21.2497       
# span 9 =    32.5515,    36.2711       
# span 10 =  1023.4188,  1026.2860      
# span 11 =    23.3963,    25.9098      
# span 12 =          4,         15      
# span 13 = 0.0000e+00, 0.0000e+00      
# interval = meters: 1                  
# start_time = Jun 16 2012 18:45:39
# bad_flag = -9.990e-29
# sensor 0 = Frequency 0  temperature, 6161, 21-Oct-08
# sensor 1 = Frequency 1  conductivity, 6161, 21-Oct-08, cpcor = -9.5700e-08
# sensor 2 = Pressure Number
# sensor 3 = Extrnl Volt  0  Fluorometer, Seapoint, primary
# sensor 4 = Extrnl Volt  2  altimeter
# datcnv_date = Jun 16 2012 19:56:40, 7.17
# datcnv_in = D:\ACEX\brutos\MCTV017.hex D:\ACEX\arqconfig\AC6161.con
# datcnv_skipover = 452
# filter_date = Jun 16 2012 19:59:49, 7.17
# filter_in = D:\ACEX\dat cnv\MCTV017.cnv
# filter_low_pass_tc_A = 1.000
# filter_low_pass_tc_B = 0.000
# filter_low_pass_A_vars = prdM tv290C
# filter_low_pass_B_vars = c0S/m
# alignctd_date = Jun 16 2012 20:03:36, 7.17
# alignctd_in = D:\ACEX\filter\MCTV017.cnv
# alignctd_adv = tv290C 0.500                                                                                                                                                                                                        
# wildedit_date = Jun 16 2012 20:06:29, 7.17
# wildedit_in = D:\ACEX\align\MCTV017.cnv
# wildedit_pass1_nstd = 2.0
# wildedit_pass2_nstd = 20.0
# wildedit_pass2_mindelta = 1.000e+002
# wildedit_npoint = 1000
# wildedit_vars = dz/dtM prdM tv290C c0S/m flSP
# wildedit_excl_bad_scans = yes
# celltm_date = Jun 16 2012 20:07:36, 7.17
# celltm_in = D:\ACEX\wildedit\MCTV017.cnv
# celltm_alpha = 0.0400, 0.0000
# celltm_tau = 8.0000, 0.0000
# celltm_temp_sensor_use_for_cond = primary, 
# loopedit_date = Jun 16 2012 20:09:09, 7.17
# loopedit_in = D:\ACEX\celltm\MCTV017.cnv
# loopedit_minVelocity = 0.250                                                                                            
# loopedit_surfaceSoak: minDepth = 5.0, maxDepth = 20, useDeckPress = 1                                                   
# loopedit_excl_bad_scans = yes
# Derive_date = Jun 16 2012 20:11:13, 7.17
# Derive_in = D:\ACEX\loopedit\MCTV017.cnv D:\ACEX\arqconfig\AC6161.con
# binavg_date = Jun 16 2012 20:11:49, 7.17
# binavg_in = D:\ACEX\derive\MCTV017.cnv
# binavg_bintype = meters
# binavg_binsize = 1
# binavg_excl_bad_scans = yes
# binavg_skipover = 0
# binavg_surface_bin = no, min = 0.000, max = 0.000, value = 0.000
# split_date = Jun 16 2012 20:13:07, 7.17
# split_in = D:\ACEX\binavg\MCTV017.cnv
# split_excl_bad_scans = yes
# file_type = ascii
*END*
        522 168.783210      0.399      5.140    18.0066   4.302645      5.000 9.0710e-01    18.0057    32.5515  1023.4188    23.3963          5 0.0000e+00
        528 168.783227      0.617      5.979    18.0069   4.302803      6.000 9.7445e-01    18.0059    32.5522  1023.4230    23.3968          6 0.0000e+00
        537 168.783253      0.441      7.021    18.0084   4.303074      7.000 9.9776e-01    18.0072    32.5530  1023.4278    23.3971         12 0.0000e+00
        548 168.783284      0.391      8.156    18.0090   4.303577      8.000 1.0319e+00    18.0076    32.5564  1023.4352    23.3996          8 0.0000e+00
        554 168.783302      0.607      9.092    18.0079   4.303841      9.000 1.0873e+00    18.0063    32.5592  1023.4417    23.4021          5 0.0000e+00
        560 168.783318      0.751      9.931    18.0067   4.303469     10.000 1.0666e+00    18.0050    32.5567  1023.4438    23.4005          6 0.0000e+00
        571 168.783351      0.280     11.120    18.0127   4.303799     11.000 1.0860e+00    18.0109    32.5542  1023.4457    23.3972         14 0.0000e+00
        579 168.783375      0.561     12.059    18.0488   4.314508     12.000 1.1350e+00    18.0468    32.6156  1023.4881    23.4354          6 0.0000e+00
        588 168.783401      0.422     13.098    18.1768   4.350513     13.000 1.0901e+00    18.1746    32.8166  1023.6151    23.5579         13 0.0000e+00
        598 168.783429      0.427     14.223    18.5597   4.510472     14.000 8.5423e-01    18.5572    33.8518  1024.3169    24.2551          5 0.0000e+00
        602 168.783441      0.836     14.979    18.8867   4.633928     15.000 6.1681e-01    18.8840    34.6158  1024.8219    24.7570          4 0.0000e+00
        612 168.783470      0.401     16.096    19.1804   4.666044     16.000 3.4792e-01    19.1775    34.6385  1024.7693    24.6996         15 0.0000e+00
        622 168.783497      0.513     17.123    19.2271   4.666461     17.000 3.8247e-01    19.2240    34.6027  1024.7345    24.6603          5 0.0000e+00
        631 168.783525      0.398     18.141    19.2367   4.665290     18.000 3.7118e-01    19.2335    34.5846  1024.7226    24.6440         15 0.0000e+00
        641 168.783552      0.466     19.256    19.2756   4.671291     19.000 3.7351e-01    19.2722    34.6017  1024.7305    24.6471          4 0.0000e+00
        645 168.783565      0.897     20.002    19.3103   4.680898     20.000 3.5068e-01    19.3066    34.6523  1024.7636    24.6770          4 0.0000e+00
        654 168.783590      0.490     21.075    19.3388   4.682159     21.000 2.9422e-01    19.3350    34.6387  1024.7506    24.6592         14 0.0000e+00
        666 168.783624      0.390     22.245    19.3686   4.682802     22.000 2.7180e-01    19.3646    34.6188  1024.7328    24.6365          7 0.0000e+00
        671 168.783641      0.649     23.094    19.4226   4.696805     23.000 2.7734e-01    19.4184    34.6896  1024.7766    24.6766          6 0.0000e+00
        681 168.783669      0.413     24.172    19.4888   4.707925     24.000 2.6396e-01    19.4845    34.7262  1024.7921    24.6874         13 0.0000e+00
        690 168.783696      0.443     25.292    19.5205   4.714500     25.000 2.6554e-01    19.5159    34.7538  1024.8098    24.7004          5 0.0000e+00
        695 168.783709      0.779     26.085    19.5185   4.714964     26.000 2.7132e-01    19.5138    34.7589  1024.8178    24.7049          5 0.0000e+00
        704 168.783735      0.485     27.124    19.5082   4.713744     27.000 2.5736e-01    19.5033    34.7571  1024.8236    24.7062         14 0.0000e+00
        715 168.783769      0.323     28.278    19.5135   4.717250     28.000 2.4629e-01    19.5084    34.7813  1024.8457    24.7233          6 0.0000e+00
        723 168.783790      0.481     29.187    19.5345   4.721496     29.000 2.5150e-01    19.5293    34.7985  1024.8574    24.7311         12 0.0000e+00
        732 168.783817      0.429     30.277    19.5810   4.728938     30.000 2.3463e-01    19.5755    34.8208  1024.8671    24.7361          6 0.0000e+00
        738 168.783834      0.685     31.118    19.6355   4.738180     31.000 2.2728e-01    19.6298    34.8515  1024.8800    24.7454          6 0.0000e+00
        748 168.783862      0.390     32.255    19.7742   4.763619     32.000 1.9701e-01    19.7683    34.9450  1024.9200    24.7806         11 0.0000e+00
        755 168.783883      0.563     33.167    19.9043   4.794724     33.000 1.7019e-01    19.8982    35.0919  1025.0019    24.8587          5 0.0000e+00
        766 168.783916      0.319     34.287    19.9652   4.797940     34.000 1.6493e-01    19.9589    35.0670  1024.9717    24.8237         11 0.0000e+00
        775 168.783941      0.550     35.283    20.0027   4.804771     35.000 1.7120e-01    19.9962    35.0914  1024.9848    24.8325          4 0.0000e+00
        782 168.783960      0.566     36.203    20.0380   4.812200     36.000 1.8127e-01    20.0313    35.1225  1025.0032    24.8469         13 0.0000e+00
        792 168.783991      0.237     37.442    20.1152   4.821694     37.000 1.9799e-01    20.1082    35.1353  1024.9980    24.8364          4 0.0000e+00
        796 168.784002      0.809     38.066    20.1754   4.850542     38.000 1.7785e-01    20.1683    35.3207  1025.1260    24.9618          5 0.0000e+00
        811 168.784044      0.194     39.362    20.2708   4.851896     39.000 1.6978e-01    20.2634    35.2514  1025.0534    24.8837          8 0.0000e+00
        818 168.784067      0.505     40.241    20.4016   4.888418     40.000 1.7928e-01    20.3940    35.4393  1025.1654    24.9921         12 0.0000e+00
        829 168.784098      0.294     41.471    20.5461   4.910345     41.000 1.7854e-01    20.5383    35.4961  1025.1753    24.9967          6 0.0000e+00
        834 168.784111      0.767     42.230    20.6221   4.933938     42.000 1.6747e-01    20.6142    35.6235  1025.2552    25.0734          4 0.0000e+00
        840 168.784130      0.690     43.129    20.6837   4.944199     43.000 1.5754e-01    20.6756    35.6547  1025.2661    25.0806          9 0.0000e+00
        857 168.784178      0.247     44.420    20.7254   4.946530     44.000 1.4671e-01    20.7169    35.6381  1025.2479    25.0568          8 0.0000e+00
        864 168.784199      0.521     45.296    20.7467   4.951394     45.000 1.4666e-01    20.7381    35.6593  1025.2620    25.0672          9 0.0000e+00
        873 168.784225      0.379     46.450    20.7718   4.954521     46.000 1.4708e-01    20.7630    35.6631  1025.2631    25.0633          6 0.0000e+00
        878 168.784240      0.706     47.269    20.7895   4.959905     47.000 1.6849e-01    20.7805    35.6915  1025.2835    25.0802          5 0.0000e+00
        885 168.784258      0.664     48.166    20.8028   4.963567     48.000 1.5815e-01    20.7937    35.7096  1025.2976    25.0904          9 0.0000e+00
        903 168.784311      0.190     49.534    20.7747   4.958483     49.000 1.9143e-01    20.7653    35.6916  1025.2975    25.0844          7 0.0000e+00
        908 168.784327      0.658     50.317    20.8011   4.964560     50.000 2.3449e-01    20.7916    35.7183  1025.3140    25.0976          4 0.0000e+00
        915 168.784347      0.636     51.251    20.8778   4.981339     51.000 2.1736e-01    20.8680    35.7891  1025.3511    25.1308         10 0.0000e+00
        926 168.784378      0.303     52.479    21.0048   5.005650     52.000 2.0600e-01    20.9948    35.8780  1025.3894    25.1639          9 0.0000e+00
        932 168.784394      0.640     53.322    21.0523   5.015034     53.000 2.1877e-01    21.0420    35.9133  1025.4070    25.1780          5 0.0000e+00
        941 168.784422      0.509     54.287    21.0853   5.022034     54.000 2.2148e-01    21.0748    35.9416  1025.4236    25.1904          8 0.0000e+00
        955 168.784462      0.452     55.421    21.1027   5.024542     55.000 2.2138e-01    21.0921    35.9466  1025.4276    25.1896          6 0.0000e+00
        962 168.784482      0.574     56.379    21.1075   5.025678     56.000 2.2997e-01    21.0967    35.9514  1025.4341    25.1920          8 0.0000e+00
        969 168.784503      0.538     57.385    21.1006   5.026033     57.000 2.2645e-01    21.0895    35.9597  1025.4467    25.2003          7 0.0000e+00
        976 168.784524      0.577     58.333    21.0620   5.021803     58.000 2.3920e-01    21.0507    35.9579  1025.4600    25.2095          8 0.0000e+00
        986 168.784552      0.422     59.348    20.9732   5.010147     59.000 2.6527e-01    20.9618    35.9384  1025.4739    25.2190         13 0.0000e+00
        999 168.784590      0.256     60.522    20.9390   5.012171     60.000 2.7536e-01    20.9275    35.9831  1025.5224    25.2624          9 0.0000e+00
       1006 168.784610      0.560     61.425    21.0066   5.022675     61.000 2.5909e-01    20.9948    36.0105  1025.5287    25.2649          7 0.0000e+00
       1013 168.784630      0.587     62.355    21.1130   5.052194     62.000 2.2622e-01    21.1010    36.1579  1025.6157    25.3481          7 0.0000e+00
       1023 168.784659      0.374     63.450    21.2320   5.074766     63.000 2.3034e-01    21.2197    36.2383  1025.6489    25.3766         12 0.0000e+00
       1031 168.784683      0.522     64.420    21.2622   5.080702     64.000 2.2940e-01    21.2497    36.2601  1025.6613    25.3850          6 0.0000e+00
       1041 168.784711      0.401     65.420    21.2409   5.077375     65.000 2.3681e-01    21.2282    36.2511  1025.6647    25.3840         12 0.0000e+00
       1052 168.784743      0.441     66.506    21.1899   5.071132     66.000 2.1012e-01    21.1771    36.2437  1025.6778    25.3925          6 0.0000e+00
       1059 168.784762      0.615     67.390    21.1402   5.063083     67.000 2.0390e-01    21.1272    36.2208  1025.6779    25.3887          8 0.0000e+00
       1068 168.784790      0.381     68.509    21.1009   5.062805     68.000 1.6167e-01    21.0877    36.2515  1025.7170    25.4230          9 0.0000e+00
       1076 168.784811      0.551     69.438    21.0575   5.060704     69.000 1.4666e-01    21.0441    36.2711  1025.7480    25.4499          7 0.0000e+00
       1085 168.784837      0.439     70.443    20.9391   5.043976     70.000 1.4213e-01    20.9256    36.2364  1025.7584    25.4559         12 0.0000e+00
       1096 168.784869      0.351     71.558    20.8254   5.031665     71.000 1.2924e-01    20.8117    36.2332  1025.7919    25.4845          7 0.0000e+00
       1104 168.784893      0.409     72.477    20.7371   5.025306     72.000 1.2859e-01    20.7232    36.2567  1025.8379    25.5265         14 0.0000e+00
       1116 168.784927      0.318     73.656    20.4352   4.989910     73.000 1.3289e-01    20.4213    36.2263  1025.9017    25.5849          5 0.0000e+00
       1121 168.784941      0.725     74.464    20.1541   4.950646     74.000 1.2822e-01    20.1402    36.1455  1025.9192    25.5985          6 0.0000e+00
       1127 168.784959      0.660     75.388    19.8133   4.904706     75.000 1.3933e-01    19.7994    36.0597  1025.9484    25.6233          8 0.0000e+00
       1143 168.785005      0.205     76.630    19.4039   4.853606     76.000 1.4560e-01    19.3900    35.9885  1026.0072    25.6762          7 0.0000e+00
       1151 168.785030      0.563     77.538    19.3313   4.847463     77.000 1.4594e-01    19.3173    35.9995  1026.0385    25.7035          6 0.0000e+00
       1158 168.785049      0.642     78.404    19.3163   4.846940     78.000 1.4317e-01    19.3021    36.0078  1026.0525    25.7138          8 0.0000e+00
       1206 168.785189      0.281     79.505    19.3158   4.848144     79.000 1.3697e-01    19.3014    36.0179  1026.0652    25.7217          5 0.0000e+00
       1240 168.785287      0.177     80.602    19.2543   4.846059     80.000 1.3695e-01    19.2397    36.0534  1026.1131    25.7648          5 0.0000e+00
       1265 168.785359      0.363     81.590    19.0874   4.822896     81.000 1.2926e-01    19.0728    36.0040  1026.1229    25.7701          8 0.0000e+00
       1283 168.785412      0.694     82.366    18.9322   4.798880     82.000 1.1163e-01    18.9175    35.9366  1026.1148    25.7584          8 0.0000e+00
       1318 168.785511      0.268     83.578    18.6945   4.773760     83.000 9.8691e-02    18.6797    35.9313  1026.1769    25.8149          6 0.0000e+00
       1347 168.785597      0.392     84.532    18.5493   4.757384     84.000 9.6620e-02    18.5345    35.9189  1026.2085    25.8422          9 0.0000e+00
       1369 168.785660      0.425     85.525    18.4208   4.743146     85.000 1.1089e-01    18.4058    35.9099  1026.2386    25.8678          7 0.0000e+00
       1401 168.785751      0.196     86.715    18.2360   4.723531     86.000 1.0492e-01    18.2209    35.9042  1026.2860    25.9098          5 0.0000e+00
       1424 168.785820      0.180     87.419    18.1514   4.710051     87.000 1.1059e-01    18.1362    35.8631  1026.2788    25.8994          9 0.0000e+00
