* Sea-Bird SBE 19plus V2 Data File:
* FileName = D:\ACEX_ctd\brutos\MCTV025a.hex
* Software Version Seasave V 7.17
* Temperature SN = 6161
* Conductivity SN = 6161
* System UpLoad Time = Jun 19 2012 10:59:36
** H38 
** NHo Cruzeiro do Sul 
** 222 
** MCT V 
**   025a
**   33 46.65 S
**   051 07.44 W
**   19/06/2012 13:13 Z
**   670
** 9P46375-0882 
**   CT Fernandes
# nquan = 14
# nvalues = 460                         
# units = specified
# name 0 = scan: Scan Count
# name 1 = timeJ: Julian Days
# name 2 = dz/dtM: Descent Rate [m/s]
# name 3 = prdM: Pressure, Strain Gauge [db]
# name 4 = tv290C: Temperature [ITS-90, deg C]
# name 5 = c0S/m: Conductivity [S/m]
# name 6 = depSM: Depth [salt water, m]
# name 7 = oxsatML/L: Oxygen Saturation [ml/l]
# name 8 = flSP: Fluorescence, Seapoint
# name 9 = potemp090C: Potential Temperature [ITS-90, deg C]
# name 10 = sal00: Salinity [PSU]
# name 11 = density00: Density [density, Kg/m^3]
# name 12 = oxsatML/L: Oxygen Saturation [ml/l]
# name 13 = flag: flag
# span 0 =       5270,       9297       
# span 1 = 171.473302, 171.484954       
# span 2 =     -1.719,      0.057       
# span 3 =      1.939,    464.043       
# span 4 =     7.4819,    20.2644       
# span 5 =   3.549186,   4.981114       
# span 6 =      2.000,    461.000       
# span 7 =    5.10126,    6.70735       
# span 8 = 4.4908e+00, 5.1794e+00       
# span 9 =     7.4363,    20.2522       
# span 10 =    34.5136,    36.3425      
# span 11 =  1025.3010,  1029.0832      
# span 12 =    5.10114,    6.70739      
# span 13 = 0.0000e+00, 0.0000e+00      
# interval = meters: 1                  
# start_time = Jun 19 2012 10:59:36
# bad_flag = -9.990e-29
# sensor 0 = Frequency 0  temperature, 6161, 21-Oct-08
# sensor 1 = Frequency 1  conductivity, 6161, 21-Oct-08, cpcor = -9.5700e-08
# sensor 2 = Pressure Number
# sensor 3 = Extrnl Volt  0  Fluorometer, Seapoint, primary
# sensor 4 = Extrnl Volt  2  altimeter
# datcnv_date = Jun 20 2012 15:44:57, 7.17
# datcnv_in = D:\ACEX_ctd\brutos\MCTV025a.hex D:\ACEX_ctd\arqconfig\AC6161.con
# datcnv_skipover = 1
# filter_date = Jun 20 2012 15:45:29, 7.17
# filter_in = D:\ACEX_ctd\dat cnv\MCTV025a.cnv
# filter_low_pass_tc_A = 1.000
# filter_low_pass_tc_B = 0.150
# filter_low_pass_A_vars = prdM flSP
# filter_low_pass_B_vars = c0S/m
# alignctd_date = Jun 20 2012 15:46:01, 7.17
# alignctd_in = D:\ACEX_ctd\filter\MCTV025a.cnv
# alignctd_adv = c0S/m -0.010                                                                                                                                                                                                        
# wildedit_date = Jun 20 2012 15:46:49, 7.17
# wildedit_in = D:\ACEX_ctd\align\MCTV025a.cnv
# wildedit_pass1_nstd = 2.0
# wildedit_pass2_nstd = 20.0
# wildedit_pass2_mindelta = 1.000e+002
# wildedit_npoint = 1000
# wildedit_vars = dz/dtM prdM tv290C c0S/m oxsatML/L flSP
# wildedit_excl_bad_scans = yes
# celltm_date = Jun 20 2012 15:47:33, 7.17
# celltm_in = D:\ACEX_ctd\wildedit\MCTV025a.cnv
# celltm_alpha = 0.0300, 0.0000
# celltm_tau = 7.0000, 0.0000
# celltm_temp_sensor_use_for_cond = primary, 
# loopedit_date = Jun 20 2012 15:48:27, 7.17
# loopedit_in = D:\ACEX_ctd\celltm\MCTV025a.cnv
# loopedit_minVelocity = 0.250                                                                                            
# loopedit_surfaceSoak: minDepth = 5.0, maxDepth = 20, useDeckPress = 1                                                   
# loopedit_excl_bad_scans = yes
# Derive_date = Jun 20 2012 15:49:05, 7.17
# Derive_in = D:\ACEX_ctd\loopedit\MCTV025a.cnv C:\Documents and Settings\Coleta\Desktop\Nova pasta\6161.con
# binavg_date = Jun 20 2012 15:49:23, 7.17
# binavg_in = D:\ACEX_ctd\derive\MCTV025a.cnv
# binavg_bintype = meters
# binavg_binsize = 1
# binavg_excl_bad_scans = yes
# binavg_skipover = 0
# binavg_surface_bin = no, min = 0.000, max = 0.000, value = 0.000
# split_date = Jun 20 2012 15:49:45, 7.17
# split_in = D:\ACEX_ctd\binavg\MCTV025a.cnv
# split_excl_bad_scans = yes
# file_type = ascii
*END*
       5270 171.473302     -0.436    464.043     7.4819   3.549186    461.000    6.70735 4.8411e+00     7.4363    34.5146  1029.0832    6.70739 0.0000e+00
       5287 171.473351     -0.890    463.346     7.4860   3.549442    460.000    6.70680 4.8740e+00     7.4404    34.5136  1029.0787    6.70679 0.0000e+00
       5350 171.473531     -0.824    462.156     7.4991   3.550884    459.000    6.70464 4.8834e+00     7.4536    34.5168  1029.0738    6.70463 0.0000e+00
       5367 171.473582     -0.805    461.266     7.5077   3.551808    458.000    6.70322 4.8833e+00     7.4622    34.5188  1029.0700    6.70323 0.0000e+00
       5387 171.473641     -0.419    459.927     7.5243   3.553103    457.000    6.70077 4.8835e+00     7.4789    34.5170  1029.0599    6.70074 0.0000e+00
       5393 171.473657     -0.613    459.046     7.5288   3.553706    456.000    6.69996 4.8834e+00     7.4835    34.5194  1029.0572    6.69994 0.0000e+00
       5400 171.473678     -0.597    458.049     7.5390   3.554591    455.000    6.69839 4.8833e+00     7.4938    34.5194  1029.0510    6.69837 0.0000e+00
       5408 171.473701     -0.497    456.987     7.5450   3.555239    454.000    6.69741 4.8832e+00     7.4998    34.5210  1029.0466    6.69738 0.0000e+00
       5415 171.473720     -0.612    456.075     7.5589   3.556636    453.000    6.69519 4.8833e+00     7.5138    34.5228  1029.0417    6.69516 0.0000e+00
       5426 171.473752     -0.305    454.919     7.5741   3.557913    452.000    6.69289 4.8834e+00     7.5291    34.5221  1029.0335    6.69285 0.0000e+00
       5434 171.473777     -0.513    453.847     7.5792   3.558207    451.000    6.69217 4.8832e+00     7.5343    34.5207  1029.0268    6.69212 0.0000e+00
       5438 171.473787     -0.962    453.178     7.5803   3.558582    450.000    6.69184 4.8833e+00     7.5354    34.5239  1029.0261    6.69180 0.0000e+00
       5449 171.473818     -0.296    451.925     7.5974   3.560121    449.000    6.68920 4.8832e+00     7.5526    34.5243  1029.0181    6.68917 0.0000e+00
       5456 171.473839     -0.688    451.035     7.6031   3.560889    448.000    6.68818 4.8832e+00     7.5584    34.5273  1029.0156    6.68816 0.0000e+00
       5464 171.473864     -0.484    449.919     7.6121   3.561280    447.000    6.68700 4.8833e+00     7.5674    34.5233  1029.0059    6.68696 0.0000e+00
       5472 171.473885     -0.527    448.884     7.6082   3.560724    446.000    6.68765 4.8833e+00     7.5637    34.5215  1029.0004    6.68762 0.0000e+00
       5480 171.473910     -0.462    447.925     7.6070   3.560821    445.000    6.68771 4.8834e+00     7.5625    34.5243  1028.9985    6.68769 0.0000e+00
       5492 171.473943     -0.491    446.757     7.6133   3.562126    444.000    6.68637 4.8832e+00     7.5690    34.5326  1028.9987    6.68635 0.0000e+00
       5495 171.473953     -1.003    446.023     7.6281   3.563484    443.000    6.68411 4.8832e+00     7.5838    34.5330  1028.9934    6.68407 0.0000e+00
       5500 171.473968     -0.898    445.085     7.6572   3.566984    442.000    6.67924 4.8832e+00     7.6129    34.5424  1028.9920    6.67920 0.0000e+00
       5511 171.473998     -0.415    443.959     7.7117   3.572345    441.000    6.67074 4.8833e+00     7.6673    34.5468  1028.9819    6.67065 0.0000e+00
       5524 171.474036     -0.282    442.760     7.7740   3.578261    440.000    6.66114 4.8835e+00     7.7295    34.5496  1028.9689    6.66102 0.0000e+00
       5530 171.474053     -0.614    441.898     7.7900   3.579545    439.000    6.65876 4.8835e+00     7.7455    34.5480  1028.9613    6.65864 0.0000e+00
       5536 171.474072     -0.582    440.918     7.7995   3.580203    438.000    6.65738 4.8833e+00     7.7551    34.5461  1028.9539    6.65727 0.0000e+00
       5544 171.474096     -0.503    439.899     7.8024   3.580336    437.000    6.65695 4.8832e+00     7.7581    34.5452  1028.9481    6.65688 0.0000e+00
       5553 171.474120     -0.470    438.861     7.8036   3.580393    436.000    6.65676 4.8831e+00     7.7594    34.5451  1028.9431    6.65669 0.0000e+00
       5561 171.474144     -0.488    437.876     7.8077   3.580754    435.000    6.65611 4.8832e+00     7.7636    34.5454  1028.9383    6.65606 0.0000e+00
       5570 171.474169     -0.464    436.852     7.8097   3.581098    434.000    6.65569 4.8832e+00     7.7657    34.5476  1028.9350    6.65565 0.0000e+00
       5579 171.474195     -0.444    435.795     7.8190   3.581903    433.000    6.65429 4.8831e+00     7.7751    34.5476  1028.9288    6.65424 0.0000e+00
       5587 171.474219     -0.443    434.603     7.8298   3.583721    432.000    6.65223 4.8832e+00     7.7860    34.5570  1028.9290    6.65219 0.0000e+00
       5590 171.474229     -0.869    433.857     7.8488   3.586380    431.000    6.64891 4.8833e+00     7.8050    34.5672  1028.9307    6.64887 0.0000e+00
       5594 171.474239     -1.132    433.154     7.8759   3.588884    430.000    6.64479 4.8833e+00     7.8321    34.5677  1028.9236    6.64473 0.0000e+00
       5609 171.474283     -0.439    431.758     7.9435   3.596055    429.000    6.63410 4.8831e+00     7.8996    34.5785  1028.9151    6.63400 0.0000e+00
       5616 171.474302     -0.888    430.885     7.9897   3.601195    428.000    6.62668 4.8832e+00     7.9457    34.5885  1028.9117    6.62659 0.0000e+00
       5622 171.474319     -0.739    429.896     8.0350   3.604786    427.000    6.62013 4.8831e+00     7.9910    34.5827  1028.8955    6.61999 0.0000e+00
       5630 171.474344     -0.475    428.807     8.0535   3.606034    426.000    6.61752 4.8832e+00     8.0095    34.5783  1028.8842    6.61738 0.0000e+00
       5640 171.474371     -0.422    427.657     8.0686   3.607598    425.000    6.61511 4.8832e+00     8.0247    34.5807  1028.8784    6.61499 0.0000e+00
       5644 171.474384     -0.743    426.880     8.0751   3.608001    424.000    6.61420 4.8831e+00     8.0313    34.5790  1028.8726    6.61409 0.0000e+00
       5656 171.474418     -0.373    425.715     8.0881   3.609242    423.000    6.61217 4.8831e+00     8.0443    34.5800  1028.8660    6.61209 0.0000e+00
       5666 171.474447     -0.569    424.601     8.0957   3.609995    422.000    6.61097 4.8830e+00     8.0521    34.5810  1028.8606    6.61089 0.0000e+00
       5669 171.474457     -0.971    423.837     8.1010   3.610805    421.000    6.60999 4.8830e+00     8.0574    34.5848  1028.8592    6.60993 0.0000e+00
       5678 171.474482     -0.586    422.766     8.1298   3.613820    420.000    6.60549 4.8832e+00     8.0862    34.5892  1028.8532    6.60542 0.0000e+00
       5691 171.474521     -0.267    421.321     8.1597   3.616189    419.000    6.60120 4.8832e+00     8.1162    34.5857  1028.8392    6.60107 0.0000e+00
       5693 171.474525     -0.973    420.742     8.1600   3.617406    418.000    6.60052 4.8832e+00     8.1166    34.5986  1028.8466    6.60048 0.0000e+00
       5696 171.474533     -1.384    420.069     8.1763   3.618997    417.000    6.59807 4.8832e+00     8.1329    34.5999  1028.8419    6.59797 0.0000e+00
       5708 171.474568     -0.613    418.837     8.2225   3.623144    416.000    6.59117 4.8833e+00     8.1791    34.5992  1028.8285    6.59108 0.0000e+00
       5721 171.474607     -0.417    417.640     8.2524   3.626168    415.000    6.58655 4.8833e+00     8.2090    34.6026  1028.8209    6.58647 0.0000e+00
       5729 171.474629     -0.542    416.624     8.2690   3.628094    414.000    6.58389 4.8832e+00     8.2256    34.6073  1028.8173    6.58379 0.0000e+00
       5734 171.474645     -0.676    415.617     8.3023   3.632652    413.000    6.57822 4.8832e+00     8.2589    34.6235  1028.8200    6.57813 0.0000e+00
       5739 171.474657     -0.844    414.815     8.3399   3.636423    412.000    6.57247 4.8833e+00     8.2965    34.6270  1028.8130    6.57237 0.0000e+00
       5749 171.474689     -0.387    413.683     8.3958   3.641032    411.000    6.56442 4.8833e+00     8.3523    34.6216  1028.7947    6.56428 0.0000e+00
       5759 171.474716     -0.599    412.712     8.4152   3.643310    410.000    6.56128 4.8834e+00     8.3718    34.6272  1028.7915    6.56116 0.0000e+00
       5768 171.474743     -0.431    411.674     8.4533   3.646930    409.000    6.55555 4.8833e+00     8.4099    34.6286  1028.7817    6.55544 0.0000e+00
       5778 171.474771     -0.472    410.550     8.4679   3.648246    408.000    6.55340 4.8831e+00     8.4246    34.6288  1028.7744    6.55327 0.0000e+00
       5783 171.474785     -0.765    409.747     8.4844   3.650093    407.000    6.55076 4.8831e+00     8.4411    34.6325  1028.7710    6.55066 0.0000e+00
       5791 171.474810     -0.481    408.637     8.5087   3.652756    406.000    6.54698 4.8832e+00     8.4654    34.6374  1028.7659    6.54686 0.0000e+00
       5798 171.474830     -0.573    407.716     8.5578   3.659972    405.000    6.53849 4.8832e+00     8.5144    34.6660  1028.7760    6.53841 0.0000e+00
       5811 171.474868     -0.229    406.501     8.6498   3.667037    404.000    6.52564 4.8833e+00     8.6064    34.6511  1028.7438    6.52547 0.0000e+00
       5818 171.474886     -0.642    405.652     8.6591   3.668735    403.000    6.52387 4.8832e+00     8.6157    34.6603  1028.7456    6.52372 0.0000e+00
       5826 171.474910     -0.506    404.617     8.7058   3.673151    402.000    6.51693 4.8831e+00     8.6624    34.6616  1028.7342    6.51680 0.0000e+00
       5835 171.474935     -0.488    403.505     8.7232   3.674304    401.000    6.51460 4.8830e+00     8.6798    34.6573  1028.7230    6.51443 0.0000e+00
       5839 171.474947     -0.888    402.763     8.7345   3.675925    400.000    6.51264 4.8832e+00     8.6912    34.6636  1028.7227    6.51251 0.0000e+00
       5849 171.474977     -0.365    401.596     8.7712   3.679655    399.000    6.50709 4.8831e+00     8.7279    34.6675  1028.7144    6.50697 0.0000e+00
       5858 171.475004     -0.515    400.645     8.7935   3.681823    398.000    6.50373 4.8830e+00     8.7503    34.6689  1028.7075    6.50364 0.0000e+00
       5872 171.475044     -0.193    399.360     8.8094   3.682883    397.000    6.50157 4.8833e+00     8.7662    34.6652  1028.6962    6.50149 0.0000e+00
       5877 171.475059     -0.705    398.511     8.8092   3.682956    396.000    6.50152 4.8832e+00     8.7661    34.6666  1028.6934    6.50145 0.0000e+00
       5881 171.475069     -1.107    397.806     8.8119   3.683469    395.000    6.50100 4.8832e+00     8.7689    34.6696  1028.6921    6.50092 0.0000e+00
       5895 171.475109     -0.372    396.507     8.8359   3.685702    394.000    6.49745 4.8832e+00     8.7930    34.6703  1028.6828    6.49740 0.0000e+00
       5904 171.475135     -0.661    395.517     8.8430   3.686901    393.000    6.49617 4.8832e+00     8.8002    34.6764  1028.6819    6.49611 0.0000e+00
       5909 171.475149     -0.880    394.746     8.8631   3.689052    392.000    6.49308 4.8833e+00     8.8203    34.6797  1028.6776    6.49303 0.0000e+00
       5923 171.475192     -0.106    393.267     8.8974   3.691761    391.000    6.48831 4.8833e+00     8.8547    34.6753  1028.6619    6.48822 0.0000e+00
       5928 171.475205     -0.755    392.472     8.8980   3.692622    390.000    6.48781 4.8834e+00     8.8553    34.6842  1028.6651    6.48777 0.0000e+00
       5931 171.475213     -1.154    391.822     8.9085   3.693197    389.000    6.48646 4.8834e+00     8.8659    34.6803  1028.6574    6.48640 0.0000e+00
       5945 171.475256     -0.550    390.461     8.9204   3.694389    388.000    6.48468 4.8833e+00     8.8779    34.6818  1028.6504    6.48461 0.0000e+00
       5952 171.475276     -0.935    389.519     8.9339   3.696220    387.000    6.48241 4.8833e+00     8.8915    34.6882  1028.6489    6.48238 0.0000e+00
       5956 171.475287     -1.152    388.719     8.9472   3.697509    386.000    6.48046 4.8834e+00     8.9048    34.6891  1028.6438    6.48041 0.0000e+00
       5970 171.475327     -0.266    387.374     8.9769   3.700293    385.000    6.47615 4.8832e+00     8.9346    34.6899  1028.6334    6.47606 0.0000e+00
       5982 171.475362     -0.556    386.235     9.0138   3.708023    384.000    6.46896 4.8831e+00     8.9715    34.7353  1028.6574    6.46883 0.0000e+00
       5984 171.475367     -1.126    385.586     9.0776   3.715081    383.000    6.45915 4.8831e+00     9.0352    34.7471  1028.6530    6.45912 0.0000e+00
       5988 171.475378     -1.277    384.835     9.1405   3.719809    382.000    6.45068 4.8832e+00     9.0980    34.7355  1028.6299    6.45052 0.0000e+00
       6005 171.475428     -0.276    383.362     9.2508   3.729408    381.000    6.43512 4.8833e+00     9.2082    34.7289  1028.5994    6.43493 0.0000e+00
       6012 171.475448     -0.606    382.455     9.2811   3.732571    380.000    6.43060 4.8833e+00     9.2384    34.7328  1028.5932    6.43043 0.0000e+00
       6021 171.475476     -0.434    381.433     9.3015   3.734071    379.000    6.42781 4.8833e+00     9.2589    34.7290  1028.5821    6.42766 0.0000e+00
       6037 171.475521     -0.197    379.964     9.3134   3.734921    378.000    6.42615 4.8832e+00     9.2710    34.7270  1028.5719    6.42604 0.0000e+00
       6038 171.475525     -0.895    379.332     9.3136   3.735241    377.000    6.42596 4.8832e+00     9.2712    34.7304  1028.5716    6.42587 0.0000e+00
       6041 171.475532     -1.279    378.633     9.3177   3.735638    376.000    6.42536 4.8832e+00     9.2754    34.7309  1028.5682    6.42527 0.0000e+00
       6052 171.475563     -0.908    377.554     9.3349   3.738138    375.000    6.42250 4.8833e+00     9.2927    34.7406  1028.5680    6.42241 0.0000e+00
       6066 171.475604     -0.913    376.299     9.3739   3.744146    374.000    6.41597 4.8835e+00     9.3317    34.7656  1028.5751    6.41581 0.0000e+00
       6067 171.475609     -1.463    375.671     9.4108   3.748682    373.000    6.41006 4.8835e+00     9.3685    34.7772  1028.5749    6.41009 0.0000e+00
       6073 171.475624     -1.011    374.681     9.4800   3.754546    372.000    6.40062 4.8834e+00     9.4377    34.7711  1028.5538    6.40048 0.0000e+00
       6099 171.475701      0.032    372.947     9.5804   3.763062    371.000    6.38671 4.8833e+00     9.5380    34.7627  1028.5221    6.38658 0.0000e+00
       6102 171.475708     -0.700    372.225     9.5893   3.765137    370.000    6.38498 4.8834e+00     9.5469    34.7759  1028.5276    6.38480 0.0000e+00
       6105 171.475716     -1.103    371.495     9.6131   3.767862    369.000    6.38130 4.8835e+00     9.5708    34.7812  1028.5243    6.38121 0.0000e+00
       6113 171.475740     -0.777    370.491     9.6553   3.771327    368.000    6.37559 4.8834e+00     9.6129    34.7767  1028.5088    6.37545 0.0000e+00
       6129 171.475788     -0.367    369.074     9.7229   3.779171    367.000    6.36549 4.8832e+00     9.6805    34.7927  1028.5032    6.36528 0.0000e+00
       6133 171.475798     -0.852    368.359     9.7560   3.784815    366.000    6.35960 4.8832e+00     9.7136    34.8190  1028.5146    6.35955 0.0000e+00
       6136 171.475807     -1.151    367.672     9.8036   3.788896    365.000    6.35315 4.8833e+00     9.7613    34.8152  1028.5002    6.35302 0.0000e+00
       6154 171.475860     -0.321    366.045     9.8747   3.793755    364.000    6.34401 4.8834e+00     9.8323    34.7972  1028.4664    6.34380 0.0000e+00
       6158 171.475870     -0.998    365.335     9.8694   3.793577    363.000    6.34454 4.8834e+00     9.8271    34.8009  1028.4670    6.34440 0.0000e+00
       6160 171.475878     -1.314    364.639     9.8751   3.795311    362.000    6.34321 4.8834e+00     9.8329    34.8134  1028.4726    6.34309 0.0000e+00
       6176 171.475924     -0.420    363.284     9.9471   3.802505    361.000    6.33296 4.8834e+00     9.9048    34.8183  1028.4575    6.33284 0.0000e+00
       6185 171.475949     -0.773    362.373     9.9633   3.803742    360.000    6.33077 4.8834e+00     9.9211    34.8158  1028.4486    6.33069 0.0000e+00
       6194 171.475974     -0.482    361.280     9.9756   3.804715    359.000    6.32912 4.8834e+00     9.9334    34.8144  1028.4405    6.32904 0.0000e+00
       6202 171.475999     -0.447    360.101     9.9885   3.806294    358.000    6.32716 4.8836e+00     9.9465    34.8186  1028.4361    6.32706 0.0000e+00
       6206 171.476010     -0.899    359.379    10.0001   3.808176    357.000    6.32517 4.8836e+00     9.9581    34.8270  1028.4374    6.32512 0.0000e+00
       6217 171.476043     -0.537    358.289    10.0400   3.812021    356.000    6.31961 4.8835e+00     9.9981    34.8283  1028.4264    6.31952 0.0000e+00
       6228 171.476075     -0.709    357.230    10.0705   3.815199    355.000    6.31520 4.8835e+00    10.0286    34.8319  1028.4190    6.31514 0.0000e+00
       6233 171.476088     -0.996    356.421    10.0814   3.815943    354.000    6.31381 4.8835e+00    10.0396    34.8294  1028.4114    6.31373 0.0000e+00
       6241 171.476112     -0.459    355.269    10.0946   3.817164    353.000    6.31197 4.8835e+00    10.0529    34.8296  1028.4042    6.31189 0.0000e+00
       6252 171.476142     -0.328    354.240    10.1169   3.819628    352.000    6.30870 4.8834e+00    10.0752    34.8338  1028.3988    6.30865 0.0000e+00
       6261 171.476170     -0.496    353.291    10.1333   3.821168    351.000    6.30644 4.8835e+00    10.0917    34.8342  1028.3918    6.30636 0.0000e+00
       6275 171.476210     -0.177    351.988    10.1536   3.823116    350.000    6.30358 4.8836e+00    10.1121    34.8351  1028.3830    6.30352 0.0000e+00
       6281 171.476226     -0.682    351.065    10.1574   3.823858    349.000    6.30286 4.8835e+00    10.1160    34.8394  1028.3816    6.30282 0.0000e+00
       6283 171.476233     -1.165    350.399    10.1635   3.824362    348.000    6.30204 4.8834e+00    10.1222    34.8390  1028.3771    6.30199 0.0000e+00
       6291 171.476257     -0.839    349.438    10.1782   3.825865    347.000    6.29995 4.8833e+00    10.1369    34.8406  1028.3715    6.29990 0.0000e+00
       6309 171.476307     -0.328    348.057    10.2008   3.828261    346.000    6.29673 4.8833e+00    10.1597    34.8438  1028.3637    6.29665 0.0000e+00
       6316 171.476327     -0.511    347.006    10.2322   3.835546    345.000    6.29053 4.8834e+00    10.1911    34.8881  1028.3878    6.29055 0.0000e+00
       6319 171.476336     -0.964    346.349    10.2946   3.840712    344.000    6.28233 4.8833e+00    10.2534    34.8810  1028.3681    6.28225 0.0000e+00
       6328 171.476364     -0.424    345.127    10.3666   3.846527    343.000    6.27293 4.8834e+00    10.3254    34.8714  1028.3421    6.27276 0.0000e+00
       6336 171.476386     -0.600    344.089    10.3915   3.851099    342.000    6.26859 4.8834e+00    10.3503    34.8943  1028.3508    6.26844 0.0000e+00
       6340 171.476396     -1.085    343.425    10.4338   3.856200    341.000    6.26232 4.8833e+00    10.3926    34.9057  1028.3489    6.26221 0.0000e+00
       6353 171.476436     -0.582    342.202    10.5411   3.866598    340.000    6.24766 4.8833e+00    10.4998    34.9085  1028.3260    6.24748 0.0000e+00
       6362 171.476462     -0.805    341.225    10.5884   3.870560    339.000    6.24141 4.8833e+00    10.5471    34.9036  1028.3092    6.24124 0.0000e+00
       6370 171.476485     -0.559    340.102    10.6221   3.874810    338.000    6.23638 4.8834e+00    10.5809    34.9147  1028.3066    6.23623 0.0000e+00
       6376 171.476502     -0.621    339.155    10.6649   3.879212    337.000    6.23047 4.8833e+00    10.6237    34.9185  1028.2974    6.23028 0.0000e+00
       6386 171.476530     -0.469    338.160    10.7494   3.888934    336.000    6.21838 4.8833e+00    10.7081    34.9359  1028.2909    6.21819 0.0000e+00
       6399 171.476567     -0.476    337.055    10.8321   3.897507    335.000    6.20695 4.8832e+00    10.7907    34.9436  1028.2766    6.20675 0.0000e+00
       6406 171.476587     -0.553    336.151    10.8712   3.901412    334.000    6.20158 4.8834e+00    10.8298    34.9459  1028.2670    6.20142 0.0000e+00
       6416 171.476617     -0.300    334.962    10.9111   3.905462    333.000    6.19613 4.8835e+00    10.8698    34.9489  1028.2566    6.19594 0.0000e+00
       6420 171.476630     -0.760    334.254    10.9346   3.908059    332.000    6.19280 4.8834e+00    10.8933    34.9528  1028.2521    6.19265 0.0000e+00
       6434 171.476669     -0.250    333.046    10.9593   3.909786    331.000    6.18970 4.8835e+00    10.9181    34.9471  1028.2376    6.18957 0.0000e+00
       6444 171.476697     -0.495    332.026    10.9661   3.911151    330.000    6.18844 4.8834e+00    10.9250    34.9546  1028.2376    6.18836 0.0000e+00
       6449 171.476715     -0.647    331.209    10.9900   3.913775    329.000    6.18510 4.8835e+00    10.9490    34.9585  1028.2325    6.18501 0.0000e+00
       6464 171.476756     -0.074    329.862    11.0629   3.922177    328.000    6.17483 4.8834e+00    11.0219    34.9735  1028.2245    6.17470 0.0000e+00
       6468 171.476768     -0.711    329.142    11.0804   3.924052    327.000    6.17239 4.8834e+00    11.0394    34.9759  1028.2198    6.17229 0.0000e+00
       6479 171.476800     -0.405    328.048    11.1243   3.927998    326.000    6.16666 4.8834e+00    11.0833    34.9739  1028.2051    6.16653 0.0000e+00
       6490 171.476832     -0.486    326.988    11.1438   3.930108    325.000    6.16392 4.8835e+00    11.1030    34.9769  1028.1989    6.16382 0.0000e+00
       6496 171.476850     -0.614    326.141    11.1551   3.931160    324.000    6.16240 4.8835e+00    11.1143    34.9770  1028.1931    6.16232 0.0000e+00
       6508 171.476884     -0.314    324.997    11.1612   3.931547    323.000    6.16164 4.8834e+00    11.1205    34.9756  1028.1857    6.16157 0.0000e+00
       6517 171.476909     -0.475    324.070    11.1645   3.931903    322.000    6.16114 4.8834e+00    11.1240    34.9764  1028.1816    6.16110 0.0000e+00
       6530 171.476947     -0.259    322.953    11.1655   3.931753    321.000    6.16108 4.8834e+00    11.1251    34.9744  1028.1749    6.16104 0.0000e+00
       6539 171.476972     -0.569    322.018    11.1643   3.931606    320.000    6.16122 4.8833e+00    11.1240    34.9745  1028.1710    6.16120 0.0000e+00
       6548 171.477001     -0.434    321.029    11.1650   3.931578    319.000    6.16114 4.8834e+00    11.1249    34.9740  1028.1661    6.16112 0.0000e+00
       6559 171.477032     -0.516    319.997    11.1656   3.931617    318.000    6.16104 4.8835e+00    11.1256    34.9743  1028.1615    6.16103 0.0000e+00
       6567 171.477055     -0.557    319.029    11.1734   3.932687    317.000    6.15988 4.8834e+00    11.1335    34.9780  1028.1586    6.15986 0.0000e+00
       6576 171.477080     -0.449    318.008    11.2108   3.938865    316.000    6.15390 4.8833e+00    11.1709    35.0043  1028.1674    6.15389 0.0000e+00
       6587 171.477113     -0.335    316.982    11.2738   3.943501    315.000    6.14618 4.8834e+00    11.2339    34.9910  1028.1406    6.14607 0.0000e+00
       6599 171.477147     -0.344    315.937    11.3064   3.947458    314.000    6.14152 4.8833e+00    11.2665    34.9998  1028.1365    6.14144 0.0000e+00
       6612 171.477186     -0.218    314.576    11.3420   3.951412    313.000    6.13662 4.8834e+00    11.3022    35.0057  1028.1283    6.13651 0.0000e+00
       6614 171.477190     -0.880    314.006    11.3535   3.953275    312.000    6.13476 4.8835e+00    11.3138    35.0136  1028.1296    6.13471 0.0000e+00
       6620 171.477208     -0.781    313.105    11.3729   3.954593    311.000    6.13241 4.8835e+00    11.3333    35.0086  1028.1180    6.13234 0.0000e+00
       6633 171.477245     -0.236    311.814    11.3815   3.954836    310.000    6.13148 4.8834e+00    11.3421    35.0034  1028.1066    6.13140 0.0000e+00
       6641 171.477269     -0.439    310.956    11.3869   3.955571    309.000    6.13065 4.8834e+00    11.3475    35.0060  1028.1038    6.13060 0.0000e+00
       6651 171.477298     -0.578    309.962    11.3919   3.956040    308.000    6.12997 4.8835e+00    11.3526    35.0063  1028.0986    6.12993 0.0000e+00
       6661 171.477325     -0.435    308.865    11.3968   3.956542    307.000    6.12929 4.8834e+00    11.3576    35.0071  1028.0934    6.12926 0.0000e+00
       6668 171.477348     -0.500    307.760    11.4017   3.957328    306.000    6.12849 4.8833e+00    11.3627    35.0107  1028.0903    6.12847 0.0000e+00
       6671 171.477356     -1.019    307.100    11.4076   3.957850    305.000    6.12773 4.8834e+00    11.3686    35.0106  1028.0861    6.12771 0.0000e+00
       6685 171.477395     -0.649    305.917    11.4171   3.958643    304.000    6.12651 4.8834e+00    11.3783    35.0099  1028.0785    6.12648 0.0000e+00
       6695 171.477425     -0.951    304.882    11.4214   3.959112    303.000    6.12591 4.8834e+00    11.3827    35.0111  1028.0739    6.12588 0.0000e+00
       6698 171.477433     -1.356    304.197    11.4241   3.959434    302.000    6.12550 4.8834e+00    11.3855    35.0120  1028.0710    6.12549 0.0000e+00
       6710 171.477469     -0.615    303.000    11.4291   3.959736    301.000    6.12490 4.8834e+00    11.3906    35.0108  1028.0638    6.12488 0.0000e+00
       6724 171.477509     -0.469    301.841    11.4347   3.960660    300.000    6.12400 4.8835e+00    11.3963    35.0151  1028.0609    6.12398 0.0000e+00
       6732 171.477533     -0.481    300.898    11.4491   3.962206    299.000    6.12203 4.8834e+00    11.4108    35.0172  1028.0555    6.12202 0.0000e+00
       6743 171.477563     -0.335    299.756    11.4623   3.963555    298.000    6.12026 4.8834e+00    11.4242    35.0184  1028.0489    6.12022 0.0000e+00
       6750 171.477585     -0.469    298.906    11.4773   3.965237    297.000    6.11819 4.8834e+00    11.4393    35.0212  1028.0444    6.11816 0.0000e+00
       6764 171.477623     -0.278    297.734    11.5081   3.968833    296.000    6.11393 4.8834e+00    11.4701    35.0281  1028.0386    6.11386 0.0000e+00
       6771 171.477644     -0.498    296.834    11.5327   3.971773    295.000    6.11048 4.8834e+00    11.4948    35.0342  1028.0345    6.11041 0.0000e+00
       6779 171.477668     -0.469    295.809    11.5869   3.981631    294.000    6.10163 4.8835e+00    11.5490    35.0805  1028.0554    6.10157 0.0000e+00
       6791 171.477703     -0.406    294.789    11.7320   3.995510    293.000    6.08289 4.8835e+00    11.6939    35.0803  1028.0227    6.08274 0.0000e+00
       6804 171.477740     -0.521    293.675    11.8284   4.007145    292.000    6.06961 4.8836e+00    11.7902    35.1040  1028.0173    6.06936 0.0000e+00
       6808 171.477751     -0.983    292.998    11.8893   4.014057    291.000    6.06127 4.8835e+00    11.8511    35.1145  1028.0106    6.06111 0.0000e+00
       6821 171.477789     -0.261    291.678    11.9732   4.019941    290.000    6.05133 4.8834e+00    11.9350    35.0936  1027.9720    6.05112 0.0000e+00
       6828 171.477810     -0.703    290.779    11.9800   4.022023    289.000    6.04986 4.8834e+00    11.9419    35.1078  1027.9777    6.04971 0.0000e+00
       6832 171.477820     -1.095    290.114    12.0078   4.025757    288.000    6.04593 4.8835e+00    11.9697    35.1184  1027.9774    6.04574 0.0000e+00
       6852 171.477880     -0.442    288.577    12.1595   4.042143    287.000    6.02591 4.8835e+00    12.1214    35.1360  1027.9543    6.02570 0.0000e+00
       6856 171.477891     -0.978    287.838    12.1784   4.043502    286.000    6.02365 4.8835e+00    12.1403    35.1318  1027.9440    6.02345 0.0000e+00
       6860 171.477901     -1.168    287.115    12.2064   4.049414    285.000    6.01889 4.8835e+00    12.1683    35.1632  1027.9596    6.01871 0.0000e+00
       6878 171.477953     -0.515    285.756    12.3505   4.063229    284.000    6.00059 4.8833e+00    12.3122    35.1627  1027.9243    6.00048 0.0000e+00
       6885 171.477974     -0.732    284.910    12.3756   4.065207    283.000    5.99760 4.8835e+00    12.3375    35.1586  1027.9124    5.99746 0.0000e+00
       6903 171.478027     -0.072    283.412    12.4143   4.068531    282.000    5.99282 4.8835e+00    12.3763    35.1551  1027.8953    5.99270 0.0000e+00
       6907 171.478039     -0.651    282.565    12.4151   4.068989    281.000    5.99256 4.8835e+00    12.3772    35.1592  1027.8945    5.99245 0.0000e+00
       6910 171.478047     -1.100    281.905    12.4217   4.070322    280.000    5.99146 4.8836e+00    12.3839    35.1662  1027.8956    5.99136 0.0000e+00
       6921 171.478078     -0.985    280.893    12.4606   4.075585    279.000    5.98599 4.8835e+00    12.4228    35.1810  1027.8948    5.98590 0.0000e+00
       6933 171.478113     -1.165    279.748    12.5026   4.080303    278.000    5.98045 4.8833e+00    12.4649    35.1878  1027.8864    5.98038 0.0000e+00
       6937 171.478124     -1.503    278.952    12.5323   4.084684    277.000    5.97624 4.8833e+00    12.4947    35.2026  1027.8884    5.97610 0.0000e+00
       6940 171.478135     -1.363    278.123    12.5985   4.094133    276.000    5.96684 4.8834e+00    12.5609    35.2319  1027.8941    5.96671 0.0000e+00
       6962 171.478197     -0.516    276.677    12.8413   4.118150    275.000    5.93646 4.8834e+00    12.8034    35.2365  1027.8417    5.93630 0.0000e+00
       6969 171.478218     -0.633    275.772    12.8713   4.120125    274.000    5.93310 4.8835e+00    12.8334    35.2279  1027.8249    5.93292 0.0000e+00
       6980 171.478248     -0.331    274.607    12.8949   4.122487    273.000    5.93010 4.8835e+00    12.8571    35.2290  1027.8157    5.92996 0.0000e+00
       6987 171.478268     -0.534    273.760    12.9086   4.123633    272.000    5.92843 4.8834e+00    12.8710    35.2275  1027.8080    5.92831 0.0000e+00
       7000 171.478306     -0.274    272.654    12.9182   4.124462    271.000    5.92723 4.8834e+00    12.8807    35.2269  1027.8007    5.92715 0.0000e+00
       7011 171.478339     -0.395    271.621    12.9239   4.124897    270.000    5.92654 4.8834e+00    12.8865    35.2263  1027.7944    5.92647 0.0000e+00
       7019 171.478362     -0.518    270.724    12.9253   4.124947    269.000    5.92636 4.8835e+00    12.8880    35.2258  1027.7898    5.92631 0.0000e+00
       7031 171.478398     -0.268    269.555    12.9260   4.125152    268.000    5.92620 4.8834e+00    12.8889    35.2276  1027.7859    5.92616 0.0000e+00
       7038 171.478418     -0.562    268.625    12.9411   4.127672    267.000    5.92394 4.8835e+00    12.9041    35.2380  1027.7866    5.92391 0.0000e+00
       7050 171.478453     -0.407    267.583    12.9734   4.130625    266.000    5.92003 4.8834e+00    12.9365    35.2366  1027.7743    5.91998 0.0000e+00
       7062 171.478486     -0.634    266.463    12.9891   4.132224    265.000    5.91805 4.8834e+00    12.9523    35.2377  1027.7669    5.91800 0.0000e+00
       7065 171.478495     -1.088    265.725    12.9941   4.133075    264.000    5.91729 4.8835e+00    12.9574    35.2415  1027.7656    5.91724 0.0000e+00
       7069 171.478507     -1.106    264.901    13.0089   4.135385    263.000    5.91517 4.8835e+00    12.9722    35.2502  1027.7655    5.91511 0.0000e+00
       7089 171.478565     -0.472    263.532    13.0722   4.142413    262.000    5.90704 4.8833e+00    13.0356    35.2588  1027.7531    5.90700 0.0000e+00
       7098 171.478591     -0.870    262.559    13.0930   4.144803    261.000    5.90436 4.8833e+00    13.0565    35.2627  1027.7475    5.90431 0.0000e+00
       7101 171.478601     -1.084    261.786    13.1145   4.147684    260.000    5.90143 4.8834e+00    13.0781    35.2705  1027.7456    5.90140 0.0000e+00
       7112 171.478632     -0.625    260.681    13.2168   4.160488    259.000    5.88803 4.8834e+00    13.1803    35.2976  1027.7404    5.88790 0.0000e+00
       7138 171.478706     -0.116    259.033    13.3904   4.177407    258.000    5.86691 4.8833e+00    13.3539    35.2977  1027.6970    5.86675 0.0000e+00
       7139 171.478708     -0.829    258.406    13.3842   4.178255    257.000    5.86712 4.8834e+00    13.3478    35.3117  1027.7063    5.86700 0.0000e+00
       7141 171.478715     -1.332    257.728    13.4058   4.181061    256.000    5.86427 4.8834e+00    13.3694    35.3186  1027.7040    5.86413 0.0000e+00
       7144 171.478723     -1.569    257.022    13.4327   4.183928    255.000    5.86091 4.8835e+00    13.3964    35.3210  1027.6972    5.86079 0.0000e+00
       7164 171.478781     -0.477    255.515    13.5043   4.191442    254.000    5.85210 4.8834e+00    13.4681    35.3263  1027.6795    5.85193 0.0000e+00
       7172 171.478805     -0.802    254.590    13.5930   4.206986    253.000    5.83896 4.8833e+00    13.5567    35.3911  1027.7067    5.83891 0.0000e+00
       7178 171.478821     -0.760    253.690    13.7136   4.216259    252.000    5.82551 4.8835e+00    13.6772    35.3673  1027.6587    5.82530 0.0000e+00
       7189 171.478855     -0.248    252.464    13.7868   4.222840    251.000    5.81695 4.8835e+00    13.7505    35.3620  1027.6337    5.81674 0.0000e+00
       7201 171.478889     -0.265    251.380    13.8359   4.228001    250.000    5.81093 4.8834e+00    13.7996    35.3656  1027.6211    5.81076 0.0000e+00
       7214 171.478927     -0.325    250.060    13.8612   4.230556    249.000    5.80792 4.8833e+00    13.8252    35.3667  1027.6107    5.80770 0.0000e+00
       7215 171.478929     -0.999    249.525    13.8687   4.233665    248.000    5.80612 4.8833e+00    13.8327    35.3891  1027.6240    5.80600 0.0000e+00
       7217 171.478935     -1.496    248.949    13.8966   4.237975    247.000    5.80241 4.8832e+00    13.8606    35.4040  1027.6270    5.80216 0.0000e+00
       7229 171.478970     -1.213    247.758    14.0065   4.251842    246.000    5.78804 4.8833e+00    13.9705    35.4328  1027.6203    5.78810 0.0000e+00
       7240 171.479000     -1.350    246.546    14.0989   4.260975    245.000    5.77747 4.8834e+00    14.0629    35.4335  1027.5955    5.77715 0.0000e+00
       7241 171.479006     -1.719    245.881    14.1423   4.268131    244.000    5.77123 4.8833e+00    14.1063    35.4604  1027.6040    5.77109 0.0000e+00
       7255 171.479045     -0.915    244.644    14.2831   4.280855    243.000    5.75515 4.8834e+00    14.2471    35.4498  1027.5597    5.75494 0.0000e+00
       7268 171.479083     -0.950    243.525    14.3399   4.285253    242.000    5.74885 4.8833e+00    14.3039    35.4390  1027.5341    5.74868 0.0000e+00
       7273 171.479096     -0.977    242.680    14.3506   4.286119    241.000    5.74763 4.8833e+00    14.3147    35.4375  1027.5269    5.74748 0.0000e+00
       7288 171.479140     -0.247    241.382    14.3817   4.289624    240.000    5.74380 4.8833e+00    14.3460    35.4420  1027.5178    5.74369 0.0000e+00
       7297 171.479166     -0.648    240.476    14.4018   4.292658    239.000    5.74107 4.8833e+00    14.3662    35.4521  1027.5171    5.74099 0.0000e+00
       7305 171.479191     -0.446    239.483    14.4267   4.294556    238.000    5.73835 4.8833e+00    14.3912    35.4472  1027.5035    5.73826 0.0000e+00
       7315 171.479220     -0.456    238.493    14.4354   4.295399    237.000    5.73731 4.8831e+00    14.4001    35.4474  1027.4974    5.73724 0.0000e+00
       7332 171.479268     -0.143    237.213    14.4636   4.298705    236.000    5.73384 4.8833e+00    14.4284    35.4527  1027.4897    5.73377 0.0000e+00
       7337 171.479282     -0.739    236.420    14.4763   4.300861    235.000    5.73206 4.8833e+00    14.4412    35.4613  1027.4900    5.73199 0.0000e+00
       7341 171.479295     -0.946    235.661    14.5117   4.306539    234.000    5.72723 4.8833e+00    14.4766    35.4817  1027.4945    5.72717 0.0000e+00
       7362 171.479356     -0.223    234.273    14.6151   4.316062    233.000    5.71553 4.8833e+00    14.5800    35.4755  1027.4609    5.71541 0.0000e+00
       7368 171.479373     -0.665    233.507    14.6557   4.324899    232.000    5.70922 4.8833e+00    14.6207    35.5200  1027.4828    5.70916 0.0000e+00
       7382 171.479412     -0.197    232.251    14.8270   4.340611    231.000    5.69007 4.8834e+00    14.7919    35.5085  1027.4304    5.68986 0.0000e+00
       7389 171.479432     -0.640    231.342    14.8410   4.344593    230.000    5.68754 4.8834e+00    14.8060    35.5326  1027.4418    5.68742 0.0000e+00
       7392 171.479442     -1.017    230.649    14.8841   4.348632    229.000    5.68271 4.8833e+00    14.8491    35.5306  1027.4276    5.68256 0.0000e+00
       7409 171.479491     -0.303    229.335    14.9354   4.352963    228.000    5.67706 4.8833e+00    14.9005    35.5241  1027.4053    5.67692 0.0000e+00
       7418 171.479516     -0.538    228.423    14.9600   4.356390    227.000    5.67390 4.8834e+00    14.9253    35.5333  1027.4029    5.67379 0.0000e+00
       7428 171.479547     -0.354    227.346    15.0133   4.362712    226.000    5.66749 4.8834e+00    14.9787    35.5430  1027.3936    5.66739 0.0000e+00
       7437 171.479573     -0.472    226.351    15.0517   4.366417    225.000    5.66315 4.8834e+00    15.0172    35.5423  1027.3800    5.66304 0.0000e+00
       7447 171.479600     -0.408    225.388    15.0666   4.367758    224.000    5.66147 4.8834e+00    15.0322    35.5414  1027.3718    5.66138 0.0000e+00
       7459 171.479635     -0.335    224.233    15.0751   4.368572    223.000    5.66048 4.8834e+00    15.0408    35.5416  1027.3649    5.66041 0.0000e+00
       7465 171.479652     -0.626    223.469    15.0805   4.369116    222.000    5.65984 4.8835e+00    15.0464    35.5419  1027.3606    5.65978 0.0000e+00
       7480 171.479697     -0.219    222.211    15.0903   4.370041    221.000    5.65871 4.8834e+00    15.0564    35.5419  1027.3528    5.65867 0.0000e+00
       7487 171.479718     -0.564    221.325    15.0972   4.371332    220.000    5.65772 4.8833e+00    15.0634    35.5478  1027.3519    5.65768 0.0000e+00
       7495 171.479739     -0.563    220.377    15.1237   4.374750    219.000    5.65446 4.8833e+00    15.0900    35.5552  1027.3474    5.65442 0.0000e+00
       7504 171.479765     -0.445    219.409    15.1551   4.377880    218.000    5.65091 4.8834e+00    15.1215    35.5556  1027.3364    5.65086 0.0000e+00
       7525 171.479827     -0.133    217.958    15.2461   4.388637    217.000    5.64012 4.8833e+00    15.2125    35.5714  1027.3216    5.64003 0.0000e+00
       7531 171.479843     -0.577    217.047    15.2616   4.391304    216.000    5.63802 4.8833e+00    15.2281    35.5819  1027.3221    5.63791 0.0000e+00
       7533 171.479850     -1.088    216.357    15.2839   4.395467    215.000    5.63485 4.8833e+00    15.2505    35.5998  1027.3278    5.63479 0.0000e+00
       7536 171.479858     -1.412    215.652    15.3228   4.399570    214.000    5.63046 4.8833e+00    15.2895    35.6020  1027.3176    5.63034 0.0000e+00
       7551 171.479901     -0.903    214.444    15.3859   4.405188    213.000    5.62353 4.8832e+00    15.3527    35.5962  1027.2934    5.62345 0.0000e+00
       7563 171.479935     -1.257    213.432    15.4017   4.406683    212.000    5.62184 4.8833e+00    15.3686    35.5958  1027.2851    5.62169 0.0000e+00
       7566 171.479946     -1.292    212.649    15.4402   4.413192    211.000    5.61664 4.8834e+00    15.4071    35.6202  1027.2916    5.61655 0.0000e+00
       7586 171.480003     -0.118    210.995    15.5550   4.424483    210.000    5.60391 4.8834e+00    15.5221    35.6190  1027.2572    5.60376 0.0000e+00
       7590 171.480015     -0.672    210.227    15.5889   4.430787    209.000    5.59916 4.8834e+00    15.5560    35.6455  1027.2664    5.59908 0.0000e+00
       7594 171.480026     -0.964    209.539    15.6367   4.434995    208.000    5.59408 4.8835e+00    15.6039    35.6405  1027.2485    5.59394 0.0000e+00
       7614 171.480085     -0.522    208.088    15.6887   4.439632    207.000    5.58840 4.8832e+00    15.6560    35.6358  1027.2266    5.58832 0.0000e+00
       7619 171.480099     -0.937    207.223    15.6997   4.441067    206.000    5.58705 4.8833e+00    15.6671    35.6391  1027.2228    5.58699 0.0000e+00
       7623 171.480109     -1.137    206.490    15.7092   4.441913    205.000    5.58605 4.8833e+00    15.6767    35.6385  1027.2169    5.58596 0.0000e+00
       7639 171.480157     -0.631    205.234    15.7439   4.445705    204.000    5.58206 4.8832e+00    15.7116    35.6417  1027.2058    5.58200 0.0000e+00
       7649 171.480186     -0.908    204.179    15.7541   4.446466    203.000    5.58100 4.8832e+00    15.7219    35.6398  1027.1973    5.58094 0.0000e+00
       7653 171.480198     -1.054    203.340    15.7569   4.446722    202.000    5.58068 4.8832e+00    15.7249    35.6399  1027.1931    5.58063 0.0000e+00
       7664 171.480230     -0.614    202.293    15.7627   4.447366    201.000    5.57999 4.8832e+00    15.7308    35.6409  1027.1879    5.57995 0.0000e+00
       7681 171.480279     -0.545    201.074    15.7708   4.448362    200.000    5.57901 4.8832e+00    15.7392    35.6430  1027.1822    5.57898 0.0000e+00
       7686 171.480293     -0.710    200.141    15.7778   4.449071    199.000    5.57822 4.8832e+00    15.7463    35.6434  1027.1769    5.57820 0.0000e+00
       7691 171.480306     -0.867    199.334    15.7808   4.449198    198.000    5.57794 4.8833e+00    15.7493    35.6422  1027.1717    5.57791 0.0000e+00
       7703 171.480341     -0.458    198.218    15.7822   4.449295    197.000    5.57777 4.8832e+00    15.7510    35.6422  1027.1664    5.57775 0.0000e+00
       7715 171.480375     -0.594    197.159    15.7836   4.449435    196.000    5.57760 4.8831e+00    15.7525    35.6427  1027.1618    5.57758 0.0000e+00
       7725 171.480404     -0.448    196.132    15.7849   4.449479    195.000    5.57746 4.8832e+00    15.7540    35.6423  1027.1567    5.57745 0.0000e+00
       7738 171.480442     -0.335    194.793    15.7854   4.449555    194.000    5.57738 4.8832e+00    15.7547    35.6430  1027.1513    5.57737 0.0000e+00
       7740 171.480449     -0.925    194.087    15.7864   4.449663    193.000    5.57725 4.8833e+00    15.7558    35.6434  1027.1482    5.57725 0.0000e+00
       7743 171.480457     -1.295    193.363    15.7873   4.449658    192.000    5.57718 4.8833e+00    15.7568    35.6429  1027.1444    5.57717 0.0000e+00
       7756 171.480495     -0.690    192.194    15.8031   4.452189    191.000    5.57513 4.8833e+00    15.7728    35.6519  1027.1425    5.57512 0.0000e+00
       7768 171.480530     -0.852    191.096    15.8231   4.454223    190.000    5.57293 4.8832e+00    15.7929    35.6525  1027.1335    5.57289 0.0000e+00
       7772 171.480542     -1.114    190.272    15.8344   4.456196    189.000    5.57138 4.8832e+00    15.8044    35.6603  1027.1333    5.57138 0.0000e+00
       7778 171.480559     -0.792    189.228    15.8566   4.458349    188.000    5.56897 4.8832e+00    15.8267    35.6600  1027.1233    5.56894 0.0000e+00
       7787 171.480586     -0.464    188.157    15.8698   4.459384    187.000    5.56760 4.8832e+00    15.8401    35.6578  1027.1138    5.56756 0.0000e+00
       7801 171.480626     -0.189    186.742    15.8769   4.460282    186.000    5.56675 4.8831e+00    15.8473    35.6601  1027.1077    5.56670 0.0000e+00
       7804 171.480634     -0.828    186.081    15.8858   4.462117    185.000    5.56544 4.8831e+00    15.8564    35.6687  1027.1094    5.56542 0.0000e+00
       7807 171.480643     -1.154    185.320    15.9004   4.463389    184.000    5.56390 4.8832e+00    15.8711    35.6673  1027.1015    5.56387 0.0000e+00
       7817 171.480671     -0.446    184.130    15.9427   4.468505    183.000    5.55900 4.8833e+00    15.9135    35.6754  1027.0927    5.55894 0.0000e+00
       7828 171.480703     -0.432    182.910    15.9669   4.470408    182.000    5.55650 4.8833e+00    15.9379    35.6712  1027.0785    5.55643 0.0000e+00
       7832 171.480714     -0.811    182.182    15.9741   4.472109    181.000    5.55539 4.8833e+00    15.9451    35.6802  1027.0806    5.55535 0.0000e+00
       7842 171.480742     -0.376    181.003    16.0022   4.474881    180.000    5.55232 4.8833e+00    15.9734    35.6801  1027.0688    5.55226 0.0000e+00
       7851 171.480769     -0.413    179.732    16.0143   4.476512    179.000    5.55087 4.8833e+00    15.9857    35.6844  1027.0636    5.55079 0.0000e+00
       7852 171.480774     -1.073    179.163    16.0240   4.478133    178.000    5.54958 4.8833e+00    15.9954    35.6904  1027.0635    5.54953 0.0000e+00
       7856 171.480783     -1.297    178.416    16.0415   4.480546    177.000    5.54746 4.8833e+00    16.0131    35.6964  1027.0607    5.54740 0.0000e+00
       7870 171.480825     -0.186    176.921    16.1345   4.492081    176.000    5.53668 4.8830e+00    16.1062    35.7163  1027.0478    5.53658 0.0000e+00
       7876 171.480842     -0.764    176.119    16.1768   4.497540    175.000    5.53170 4.8831e+00    16.1486    35.7273  1027.0427    5.53161 0.0000e+00
       7885 171.480867     -0.484    174.996    16.2427   4.503819    174.000    5.52466 4.8831e+00    16.2146    35.7244  1027.0201    5.52454 0.0000e+00
       7892 171.480888     -0.532    173.906    16.2831   4.508112    173.000    5.52020 4.8831e+00    16.2551    35.7267  1027.0076    5.52008 0.0000e+00
       7896 171.480901     -0.888    173.112    16.2940   4.508818    172.000    5.51912 4.8832e+00    16.2661    35.7236  1026.9991    5.51901 0.0000e+00
       7905 171.480926     -0.556    172.040    16.2992   4.509055    171.000    5.51861 4.8832e+00    16.2715    35.7214  1026.9915    5.51851 0.0000e+00
       7917 171.480961     -0.367    170.762    16.3022   4.509304    170.000    5.51826 4.8831e+00    16.2747    35.7214  1026.9852    5.51819 0.0000e+00
       7921 171.480971     -0.912    170.041    16.3034   4.509432    169.000    5.51811 4.8831e+00    16.2760    35.7218  1026.9820    5.51805 0.0000e+00
       7925 171.480983     -1.115    169.271    16.3064   4.509861    168.000    5.51772 4.8831e+00    16.2792    35.7231  1026.9790    5.51767 0.0000e+00
       7940 171.481028     -0.185    167.666    16.3164   4.510975    167.000    5.51657 4.8831e+00    16.2894    35.7248  1026.9709    5.51654 0.0000e+00
       7946 171.481045     -0.753    166.779    16.3209   4.511767    166.000    5.51598 4.8830e+00    16.2940    35.7281  1026.9684    5.51594 0.0000e+00
       7947 171.481048     -1.361    166.231    16.3279   4.513430    165.000    5.51493 4.8830e+00    16.3011    35.7368  1026.9711    5.51489 0.0000e+00
       7955 171.481071     -0.901    165.181    16.3596   4.516486    164.000    5.51153 4.8830e+00    16.3329    35.7359  1026.9583    5.51149 0.0000e+00
       7968 171.481109     -0.527    163.895    16.3809   4.518820    163.000    5.50917 4.8831e+00    16.3544    35.7381  1026.9493    5.50912 0.0000e+00
       7975 171.481129     -0.598    162.875    16.4068   4.522295    162.000    5.50610 4.8832e+00    16.3804    35.7461  1026.9448    5.50606 0.0000e+00
       7980 171.481142     -0.794    162.014    16.4277   4.524192    161.000    5.50390 4.8831e+00    16.4014    35.7445  1026.9349    5.50386 0.0000e+00
       7986 171.481160     -0.727    161.061    16.4345   4.524563    160.000    5.50326 4.8830e+00    16.4084    35.7420  1026.9272    5.50320 0.0000e+00
       7998 171.481195     -0.297    159.865    16.4429   4.525385    159.000    5.50233 4.8831e+00    16.4170    35.7423  1026.9201    5.50229 0.0000e+00
       8009 171.481228     -0.471    158.654    16.4374   4.524645    158.000    5.50298 4.8832e+00    16.4117    35.7411  1026.9152    5.50292 0.0000e+00
       8013 171.481237     -0.923    157.885    16.4431   4.526355    157.000    5.50198 4.8833e+00    16.4175    35.7515  1026.9184    5.50197 0.0000e+00
       8016 171.481246     -1.233    157.150    16.4600   4.528885    156.000    5.49992 4.8833e+00    16.4345    35.7590  1026.9170    5.49989 0.0000e+00
       8027 171.481280     -0.477    155.906    16.5153   4.534533    155.000    5.49396 4.8832e+00    16.4900    35.7599  1026.8991    5.49391 0.0000e+00
       8038 171.481312     -0.619    154.739    16.5374   4.536675    154.000    5.49160 4.8832e+00    16.5122    35.7596  1026.8885    5.49155 0.0000e+00
       8042 171.481321     -1.013    153.930    16.5452   4.537917    153.000    5.49065 4.8833e+00    16.5202    35.7639  1026.8864    5.49057 0.0000e+00
       8046 171.481333     -1.019    153.058    16.5666   4.541495    152.000    5.48787 4.8833e+00    16.5417    35.7767  1026.8873    5.48785 0.0000e+00
       8055 171.481359     -0.550    151.975    16.6067   4.544943    151.000    5.48379 4.8832e+00    16.5819    35.7717  1026.8692    5.48372 0.0000e+00
       8068 171.481397     -0.375    150.735    16.6267   4.547090    150.000    5.48159 4.8832e+00    16.6020    35.7733  1026.8602    5.48152 0.0000e+00
       8072 171.481410     -0.750    149.959    16.6418   4.549280    149.000    5.47976 4.8832e+00    16.6173    35.7794  1026.8579    5.47970 0.0000e+00
       8081 171.481437     -0.430    148.835    16.6633   4.551207    148.000    5.47753 4.8831e+00    16.6389    35.7776  1026.8465    5.47747 0.0000e+00
       8090 171.481460     -0.500    147.735    16.6705   4.551968    147.000    5.47674 4.8830e+00    16.6463    35.7783  1026.8405    5.47668 0.0000e+00
       8094 171.481474     -0.839    146.877    16.6785   4.553308    146.000    5.47569 4.8832e+00    16.6545    35.7833  1026.8386    5.47565 0.0000e+00
       8099 171.481488     -0.816    145.918    16.6939   4.555389    145.000    5.47390 4.8832e+00    16.6701    35.7882  1026.8345    5.47384 0.0000e+00
       8111 171.481523     -0.348    144.712    16.7432   4.560989    144.000    5.46846 4.8831e+00    16.7194    35.7940  1026.8219    5.46840 0.0000e+00
       8124 171.481560     -0.466    143.397    16.7641   4.562508    143.000    5.46640 4.8830e+00    16.7405    35.7893  1026.8074    5.46634 0.0000e+00
       8126 171.481565     -1.103    142.749    16.7632   4.562553    142.000    5.46641 4.8830e+00    16.7398    35.7907  1026.8058    5.46637 0.0000e+00
       8128 171.481571     -1.548    142.097    16.7635   4.562249    141.000    5.46648 4.8831e+00    16.7401    35.7881  1026.8009    5.46644 0.0000e+00
       8131 171.481580     -1.657    141.363    16.7613   4.561933    140.000    5.46672 4.8831e+00    16.7381    35.7875  1026.7978    5.46669 0.0000e+00
       8152 171.481641     -0.331    139.486    16.7545   4.561022    139.000    5.46747 4.8831e+00    16.7316    35.7863  1026.7902    5.46745 0.0000e+00
       8155 171.481650     -0.814    138.607    16.7530   4.561285    138.000    5.46750 4.8831e+00    16.7302    35.7903  1026.7898    5.46748 0.0000e+00
       8158 171.481659     -1.121    137.858    16.7588   4.562262    137.000    5.46674 4.8831e+00    16.7362    35.7940  1026.7880    5.46674 0.0000e+00
       8161 171.481666     -1.404    137.168    16.7662   4.563097    136.000    5.46593 4.8831e+00    16.7437    35.7950  1026.7840    5.46592 0.0000e+00
       8171 171.481696     -0.935    135.963    16.7793   4.564375    135.000    5.46454 4.8831e+00    16.7570    35.7950  1026.7755    5.46452 0.0000e+00
       8183 171.481730     -0.927    134.644    16.7881   4.565302    134.000    5.46357 4.8830e+00    16.7660    35.7958  1026.7683    5.46356 0.0000e+00
       8184 171.481733     -1.524    134.045    16.7911   4.565717    133.000    5.46322 4.8830e+00    16.7690    35.7971  1026.7659    5.46320 0.0000e+00
       8191 171.481752     -1.074    133.048    16.8008   4.566771    132.000    5.46215 4.8831e+00    16.7790    35.7980  1026.7599    5.46213 0.0000e+00
       8210 171.481808     -0.119    131.388    16.8145   4.568100    131.000    5.46070 4.8833e+00    16.7929    35.7981  1026.7494    5.46067 0.0000e+00
       8212 171.481815     -0.748    130.645    16.8178   4.568733    130.000    5.46024 4.8833e+00    16.7963    35.8010  1026.7476    5.46023 0.0000e+00
       8216 171.481825     -1.068    129.896    16.8230   4.569200    129.000    5.45970 4.8833e+00    16.8016    35.8008  1026.7429    5.45969 0.0000e+00
       8221 171.481841     -0.832    128.934    16.8332   4.570613    128.000    5.45850 4.8833e+00    16.8120    35.8045  1026.7390    5.45848 0.0000e+00
       8234 171.481878     -0.287    127.682    16.8504   4.572309    127.000    5.45668 4.8834e+00    16.8294    35.8046  1026.7295    5.45665 0.0000e+00
       8244 171.481907     -0.414    126.494    16.8539   4.572623    126.000    5.45629 4.8833e+00    16.8331    35.8046  1026.7234    5.45627 0.0000e+00
       8248 171.481917     -0.824    125.734    16.8546   4.572563    125.000    5.45626 4.8833e+00    16.8339    35.8038  1026.7193    5.45623 0.0000e+00
       8251 171.481927     -1.120    125.009    16.8593   4.574104    124.000    5.45547 4.8833e+00    16.8388    35.8134  1026.7224    5.45541 0.0000e+00
       8265 171.481967     -0.277    123.610    16.9214   4.582317    123.000    5.44829 4.8832e+00    16.9010    35.8307  1026.7146    5.44827 0.0000e+00
       8271 171.481985     -0.790    122.775    16.9462   4.585781    122.000    5.44542 4.8834e+00    16.9259    35.8393  1026.7115    5.44537 0.0000e+00
       8278 171.482006     -0.592    121.739    17.0078   4.591816    121.000    5.43898 4.8833e+00    16.9877    35.8376  1026.6909    5.43891 0.0000e+00
       8287 171.482032     -0.409    120.576    17.0427   4.595705    120.000    5.43519 4.8833e+00    17.0226    35.8411  1026.6800    5.43512 0.0000e+00
       8292 171.482045     -0.784    119.836    17.0582   4.597134    119.000    5.43360 4.8833e+00    17.0383    35.8400  1026.6722    5.43352 0.0000e+00
       8303 171.482078     -0.197    118.516    17.1034   4.603715    118.000    5.42827 4.8834e+00    17.0837    35.8578  1026.6691    5.42818 0.0000e+00
       8308 171.482092     -0.684    117.771    17.1531   4.610320    117.000    5.42267 4.8833e+00    17.1335    35.8715  1026.6644    5.42251 0.0000e+00
       8318 171.482120     -0.397    116.676    17.4449   4.650658    116.000    5.38935 4.8833e+00    17.4252    35.9637  1026.6591    5.38911 0.0000e+00
       8327 171.482146     -0.530    115.683    17.6383   4.669996    115.000    5.36952 4.8833e+00    17.6187    35.9600  1026.6043    5.36923 0.0000e+00
       8336 171.482174     -0.387    114.470    17.7787   4.688988    114.000    5.35380 4.8832e+00    17.7592    36.0001  1026.5951    5.35350 0.0000e+00
       8341 171.482187     -0.696    113.634    17.8966   4.700866    113.000    5.34186 4.8832e+00    17.8771    35.9984  1026.5609    5.34150 0.0000e+00
       8345 171.482198     -0.983    112.906    17.9458   4.705587    112.000    5.33693 4.8832e+00    17.9264    35.9958  1026.5435    5.33658 0.0000e+00
       8359 171.482241     -0.100    111.470    18.0674   4.718325    111.000    5.32442 4.8832e+00    18.0481    35.9985  1026.5088    5.32413 0.0000e+00
       8365 171.482257     -0.696    110.712    18.0871   4.721081    110.000    5.32217 4.8832e+00    18.0680    36.0049  1026.5055    5.32193 0.0000e+00
       8376 171.482288     -0.340    109.564    18.1298   4.725343    109.000    5.31782 4.8833e+00    18.1108    36.0043  1026.4893    5.31763 0.0000e+00
       8385 171.482315     -0.476    108.328    18.1438   4.726695    108.000    5.31639 4.8832e+00    18.1250    36.0040  1026.4801    5.31622 0.0000e+00
       8388 171.482322     -0.981    107.612    18.1486   4.727682    107.000    5.31575 4.8831e+00    18.1299    36.0085  1026.4793    5.31560 0.0000e+00
       8390 171.482330     -1.307    106.898    18.1599   4.729345    106.000    5.31444 4.8831e+00    18.1414    36.0130  1026.4768    5.31431 0.0000e+00
       8403 171.482368     -0.658    105.702    18.1929   4.732884    105.000    5.31104 4.8832e+00    18.1746    36.0147  1026.4645    5.31093 0.0000e+00
       8420 171.482416     -0.342    104.220    18.2294   4.739373    104.000    5.30657 4.8833e+00    18.2112    36.0386  1026.4672    5.30649 0.0000e+00
       8422 171.482422     -0.812    103.489    18.2791   4.744935    103.000    5.30144 4.8833e+00    18.2611    36.0425  1026.4545    5.30136 0.0000e+00
       8425 171.482430     -1.201    102.789    18.2977   4.745614    102.000    5.29991 4.8833e+00    18.2798    36.0323  1026.4389    5.29981 0.0000e+00
       8434 171.482457     -0.698    101.688    18.3130   4.747012    101.000    5.29841 4.8833e+00    18.2952    36.0312  1026.4294    5.29831 0.0000e+00
       8446 171.482492     -0.570    100.445    18.3288   4.749443    100.000    5.29658 4.8832e+00    18.3113    36.0385  1026.4255    5.29649 0.0000e+00
       8451 171.482506     -0.869     99.581    18.3576   4.753666     99.000    5.29330 4.8832e+00    18.3402    36.0496  1026.4229    5.29326 0.0000e+00
       8455 171.482518     -0.946     98.799    18.3843   4.756133     98.000    5.29076 4.8833e+00    18.3670    36.0473  1026.4111    5.29065 0.0000e+00
       8469 171.482559     -0.224     97.395    18.5193   4.773718     97.000    5.27631 4.8833e+00    18.5021    36.0789  1026.3949    5.27616 0.0000e+00
       8475 171.482575     -0.785     96.577    18.5766   4.783532     96.000    5.26948 4.8832e+00    18.5596    36.1121  1026.4021    5.26941 0.0000e+00
       8482 171.482596     -0.620     95.608    18.7142   4.798941     95.000    5.25562 4.8832e+00    18.6973    36.1223  1026.3705    5.25545 0.0000e+00
       8495 171.482632     -0.237     94.251    18.8446   4.812507     94.000    5.24279 4.8833e+00    18.8278    36.1233  1026.3320    5.24252 0.0000e+00
       8497 171.482640     -0.877     93.608    18.8729   4.817598     93.000    5.23933 4.8833e+00    18.8562    36.1417  1026.3360    5.23916 0.0000e+00
       8507 171.482668     -0.575     92.570    18.9466   4.825033     92.000    5.23216 4.8833e+00    18.9300    36.1404  1026.3115    5.23197 0.0000e+00
       8520 171.482707     -0.433     91.271    18.9991   4.830509     91.000    5.22695 4.8835e+00    18.9827    36.1411  1026.2928    5.22680 0.0000e+00
       8524 171.482716     -0.908     90.521    19.0117   4.831708     90.000    5.22573 4.8835e+00    18.9955    36.1404  1026.2857    5.22558 0.0000e+00
       8528 171.482727     -1.082     89.729    19.0213   4.833949     89.000    5.22452 4.8835e+00    19.0052    36.1512  1026.2880    5.22431 0.0000e+00
       8537 171.482755     -0.440     88.552    19.2262   4.862722     88.000    5.20256 4.8835e+00    19.2102    36.2142  1026.2779    5.20239 0.0000e+00
       8548 171.482786     -0.420     87.455    19.3516   4.874278     87.000    5.19082 4.8834e+00    19.3357    36.2021  1026.2312    5.19060 0.0000e+00
       8556 171.482810     -0.446     86.466    19.4102   4.881761     86.000    5.18477 4.8834e+00    19.3945    36.2138  1026.2205    5.18458 0.0000e+00
       8568 171.482843     -0.198     85.024    19.4957   4.891776     85.000    5.17635 4.8834e+00    19.4802    36.2235  1026.1993    5.17604 0.0000e+00
       8569 171.482848     -0.812     84.411    19.5290   4.900744     84.000    5.17149 4.8833e+00    19.5136    36.2695  1026.2230    5.17144 0.0000e+00
       8572 171.482856     -1.269     83.767    19.5933   4.905715     83.000    5.16593 4.8834e+00    19.5780    36.2552  1026.1922    5.16570 0.0000e+00
       8584 171.482890     -0.510     82.467    19.7274   4.921654     82.000    5.15260 4.8833e+00    19.7123    36.2716  1026.1637    5.15238 0.0000e+00
       8593 171.482917     -0.680     81.382    19.7830   4.928021     81.000    5.14711 4.8833e+00    19.7680    36.2766  1026.1481    5.14693 0.0000e+00
       8597 171.482929     -0.971     80.589    19.8134   4.930977     80.000    5.14427 4.8832e+00    19.7985    36.2750  1026.1354    5.14408 0.0000e+00
       8605 171.482951     -0.608     79.550    19.8502   4.935395     79.000    5.14059 4.8833e+00    19.8355    36.2800  1026.1250    5.14043 0.0000e+00
       8617 171.482985     -0.295     78.268    19.8906   4.940091     78.000    5.13660 4.8833e+00    19.8761    36.2843  1026.1120    5.13647 0.0000e+00
       8622 171.483000     -0.647     77.363    19.9185   4.943493     77.000    5.13381 4.8833e+00    19.9041    36.2887  1026.1039    5.13369 0.0000e+00
       8626 171.483013     -0.884     76.561    19.9307   4.944275     76.000    5.13277 4.8833e+00    19.9165    36.2849  1026.0943    5.13266 0.0000e+00
       8636 171.483041     -0.447     75.424    19.9437   4.945812     75.000    5.13147 4.8833e+00    19.9297    36.2868  1026.0873    5.13137 0.0000e+00
       8647 171.483072     -0.457     74.219    19.9625   4.949197     74.000    5.12937 4.8834e+00    19.9487    36.2988  1026.0862    5.12922 0.0000e+00
       8650 171.483081     -0.976     73.528    19.9951   4.957883     73.000    5.12483 4.8834e+00    19.9814    36.3425  1026.1079    5.12482 0.0000e+00
       8657 171.483102     -0.662     72.506    20.1410   4.972650     72.000    5.11133 4.8835e+00    20.1274    36.3384  1026.0613    5.11121 0.0000e+00
       8669 171.483136     -0.247     71.188    20.2486   4.981114     71.000    5.10197 4.8836e+00    20.2353    36.3155  1026.0093    5.10179 0.0000e+00
       8672 171.483146     -0.772     70.485    20.2505   4.980879     70.000    5.10186 4.8835e+00    20.2373    36.3122  1026.0032    5.10171 0.0000e+00
       8680 171.483170     -0.503     69.361    20.2593   4.980716     69.000    5.10126 4.8835e+00    20.2463    36.3037  1025.9895    5.10114 0.0000e+00
       8688 171.483190     -0.537     68.336    20.2602   4.978120     68.000    5.10181 4.8835e+00    20.2473    36.2821  1025.9683    5.10171 0.0000e+00
       8693 171.483207     -0.650     67.466    20.2615   4.975734     67.000    5.10228 4.8834e+00    20.2489    36.2617  1025.9486    5.10220 0.0000e+00
       8705 171.483241     -0.174     66.090    20.2599   4.974390     66.000    5.10268 4.8833e+00    20.2475    36.2526  1025.9360    5.10262 0.0000e+00
       8708 171.483250     -0.758     65.418    20.2644   4.975289     65.000    5.10212 4.8834e+00    20.2522    36.2563  1025.9348    5.10209 0.0000e+00
       8716 171.483273     -0.514     64.369    20.2329   4.967369     64.000    5.10620 4.8834e+00    20.2208    36.2188  1025.9101    5.10617 0.0000e+00
       8726 171.483302     -0.411     63.117    20.1977   4.961842     63.000    5.10988 4.8832e+00    20.1859    36.2042  1025.9030    5.10991 0.0000e+00
       8729 171.483311     -0.977     62.414    20.1894   4.959855     62.000    5.11097 4.8833e+00    20.1778    36.1953  1025.8953    5.11096 0.0000e+00
       8733 171.483323     -1.103     61.584    20.1803   4.958263     61.000    5.11195 4.8833e+00    20.1688    36.1903  1025.8903    5.11196 0.0000e+00
       8744 171.483353     -0.379     60.364    20.1629   4.955415     60.000    5.11382 4.8834e+00    20.1516    36.1824  1025.8836    5.11384 0.0000e+00
       8756 171.483388     -0.355     59.121    20.1578   4.954331     59.000    5.11443 4.8835e+00    20.1467    36.1783  1025.8765    5.11445 0.0000e+00
       8761 171.483402     -0.704     58.222    20.1539   4.952266     58.000    5.11516 4.8835e+00    20.1431    36.1650  1025.8635    5.11521 0.0000e+00
       8764 171.483412     -0.960     57.416    20.1296   4.946187     57.000    5.11835 4.8835e+00    20.1189    36.1363  1025.8446    5.11837 0.0000e+00
       8769 171.483427     -0.884     56.485    20.0819   4.938063     56.000    5.12360 4.8834e+00    20.0713    36.1108  1025.8338    5.12363 0.0000e+00
       8779 171.483454     -0.383     55.308    20.0267   4.930680     55.000    5.12916 4.8833e+00    20.0164    36.0979  1025.8335    5.12923 0.0000e+00
       8789 171.483483     -0.386     54.273    20.0035   4.927445     54.000    5.13155 4.8835e+00    19.9934    36.0916  1025.8304    5.13162 0.0000e+00
       8799 171.483514     -0.361     52.975    19.9861   4.924093     53.000    5.13359 4.8835e+00    19.9762    36.0794  1025.8201    5.13364 0.0000e+00
       8803 171.483523     -0.801     52.148    19.9724   4.922384     52.000    5.13494 4.8836e+00    19.9627    36.0774  1025.8186    5.13500 0.0000e+00
       8805 171.483531     -1.156     51.406    19.9679   4.921820     51.000    5.13538 4.8836e+00    19.9584    36.0769  1025.8161    5.13543 0.0000e+00
       8809 171.483541     -1.256     50.621    19.9647   4.921808     50.000    5.13560 4.8835e+00    19.9553    36.0799  1025.8158    5.13565 0.0000e+00
       8825 171.483589     -0.310     49.022    19.9870   4.927172     49.000    5.13277 4.8835e+00    19.9779    36.1055  1025.8225    5.13276 0.0000e+00
       8831 171.483604     -0.884     48.163    20.0260   4.935382     48.000    5.12789 4.8835e+00    20.0170    36.1399  1025.8346    5.12803 0.0000e+00
       8833 171.483612     -1.355     47.451    20.0666   4.937899     47.000    5.12474 4.8835e+00    20.0578    36.1259  1025.8100    5.12462 0.0000e+00
       8837 171.483623     -1.258     46.566    20.0914   4.941419     46.000    5.12206 4.8834e+00    20.0827    36.1339  1025.8056    5.12204 0.0000e+00
       8850 171.483660     -0.277     45.223    20.1192   4.943817     45.000    5.11958 4.8834e+00    20.1107    36.1302  1025.7896    5.11953 0.0000e+00
       8861 171.483692     -0.444     43.987    20.1216   4.943947     44.000    5.11935 4.8835e+00    20.1134    36.1297  1025.7831    5.11931 0.0000e+00
       8865 171.483703     -0.809     43.142    20.1216   4.943715     43.000    5.11940 4.8835e+00    20.1135    36.1281  1025.7783    5.11937 0.0000e+00
       8868 171.483712     -1.112     42.377    20.1200   4.943302     42.000    5.11959 4.8836e+00    20.1122    36.1263  1025.7740    5.11956 0.0000e+00
       8874 171.483730     -0.788     41.391    20.1128   4.942047     41.000    5.12038 4.8836e+00    20.1051    36.1226  1025.7688    5.12036 0.0000e+00
       8887 171.483768     -0.217     40.003    20.1058   4.941184     40.000    5.12104 4.8835e+00    20.0984    36.1220  1025.7641    5.12104 0.0000e+00
       8892 171.483782     -0.728     39.202    20.1055   4.940963     39.000    5.12111 4.8837e+00    20.0982    36.1208  1025.7598    5.12111 0.0000e+00
       8897 171.483797     -0.759     38.233    20.1028   4.940133     38.000    5.12149 4.8836e+00    20.0956    36.1166  1025.7531    5.12149 0.0000e+00
       8903 171.483814     -0.679     37.247    20.0973   4.939097     37.000    5.12210 4.8835e+00    20.0904    36.1132  1025.7476    5.12211 0.0000e+00
       8911 171.483835     -0.560     36.266    20.0881   4.937174     36.000    5.12320 4.8835e+00    20.0814    36.1056  1025.7400    5.12320 0.0000e+00
       8921 171.483866     -0.342     35.063    20.0731   4.934523     35.000    5.12486 4.8835e+00    20.0666    36.0971  1025.7324    5.12488 0.0000e+00
       8927 171.483883     -0.662     34.116    20.0511   4.929871     34.000    5.12746 4.8836e+00    20.0448    36.0781  1025.7195    5.12753 0.0000e+00
       8932 171.483898     -0.744     33.156    19.9950   4.912630     33.000    5.13568 4.8835e+00    19.9888    35.9847  1025.6590    5.13567 0.0000e+00
       8936 171.483910     -0.889     32.320    19.8651   4.893115     32.000    5.14938 4.8835e+00    19.8592    35.9355  1025.6522    5.14950 0.0000e+00
       8945 171.483935     -0.496     31.185    19.7295   4.874082     31.000    5.16353 4.8835e+00    19.7238    35.8949  1025.6520    5.16368 0.0000e+00
       8953 171.483959     -0.475     30.048    19.6869   4.868284     30.000    5.16788 4.8835e+00    19.6814    35.8838  1025.6499    5.16809 0.0000e+00
       8958 171.483972     -0.844     29.287    19.6637   4.864611     29.000    5.17047 4.8834e+00    19.6584    35.8736  1025.6448    5.17063 0.0000e+00
       8966 171.483996     -0.486     28.160    19.6457   4.862250     28.000    5.17234 4.8834e+00    19.6406    35.8699  1025.6418    5.17246 0.0000e+00
       8975 171.484022     -0.448     26.975    19.6365   4.858773     27.000    5.17387 4.8835e+00    19.6315    35.8494  1025.6234    5.17398 0.0000e+00
       8980 171.484036     -0.771     26.070    19.6070   4.852180     26.000    5.17759 4.8835e+00    19.6023    35.8204  1025.6050    5.17770 0.0000e+00
       8984 171.484047     -0.938     25.200    19.5649   4.840152     25.000    5.18340 4.8835e+00    19.5603    35.7570  1025.5639    5.18370 0.0000e+00
       8988 171.484059     -0.980     24.383    19.4097   4.801740     24.000    5.20427 4.8835e+00    19.4053    35.5709  1025.4585    5.20445 0.0000e+00
       9004 171.484105     -0.140     22.917    18.5709   4.676938     23.000    5.29727 4.8835e+00    18.5669    35.2431  1025.4166    5.29726 0.0000e+00
       9010 171.484122     -0.752     21.951    18.5516   4.664035     22.000    5.30187 4.8835e+00    18.5477    35.1502  1025.3460    5.30224 0.0000e+00
       9014 171.484134     -0.953     20.990    18.4553   4.652510     21.000    5.31195 4.8834e+00    18.4516    35.1354  1025.3546    5.31240 0.0000e+00
       9017 171.484143     -1.110     20.161    18.4110   4.648787     20.000    5.31614 4.8835e+00    18.4075    35.1420  1025.3671    5.31664 0.0000e+00
       9019 171.484150     -1.306     19.429    18.3988   4.647989     19.000    5.31728 4.8835e+00    18.3955    35.1459  1025.3700    5.31775 0.0000e+00
       9032 171.484187     -0.598     18.103    18.3739   4.644930     18.000    5.32006 4.8834e+00    18.3708    35.1418  1025.3672    5.32039 0.0000e+00
       9041 171.484212     -0.861     17.019    18.3618   4.643261     17.000    5.32152 4.8833e+00    18.3589    35.1384  1025.3629    5.32172 0.0000e+00
       9044 171.484222     -1.204     16.230    18.3624   4.644186     16.000    5.32119 4.8834e+00    18.3596    35.1461  1025.3652    5.32143 0.0000e+00
       9049 171.484235     -1.039     15.354    18.3643   4.644034     15.000    5.32113 4.8833e+00    18.3616    35.1435  1025.3589    5.32131 0.0000e+00
       9063 171.484277      0.057     13.808    18.3474   4.641181     14.000    5.32321 4.8833e+00    18.3450    35.1344  1025.3493    5.32332 0.0000e+00
       9067 171.484289     -0.723     13.050    18.3488   4.641384     13.000    5.32304 4.8833e+00    18.3466    35.1351  1025.3462    5.32315 0.0000e+00
       9072 171.484302     -0.950     12.295    18.3435   4.640523     12.000    5.32368 4.8834e+00    18.3414    35.1327  1025.3424    5.32376 0.0000e+00
       9087 171.484345     -0.085     10.864    18.3447   4.641734     11.000    5.32327 4.8834e+00    18.3428    35.1424  1025.3432    5.32333 0.0000e+00
       9092 171.484359     -0.736     10.161    18.3481   4.641741     10.000    5.32303 4.8833e+00    18.3463    35.1399  1025.3373    5.32307 0.0000e+00
       9101 171.484386     -0.456      9.130    18.3470   4.641495      9.000    5.32317 4.8833e+00    18.3455    35.1391  1025.3325    5.32320 0.0000e+00
       9118 171.484437     -0.197      7.930    18.3473   4.641543      8.000    5.32314 4.8836e+00    18.3459    35.1397  1025.3277    5.32315 0.0000e+00
       9126 171.484458     -0.518      7.105    18.3447   4.640662      7.000    5.32356 4.8835e+00    18.3435    35.1348  1025.3209    5.32357 0.0000e+00
       9143 171.484509     -0.268      5.994    18.3388   4.639903      6.000    5.32420 4.8834e+00    18.3377    35.1338  1025.3168    5.32420 0.0000e+00
       9158 171.484551     -0.307      5.021    18.3374   4.639791      5.000    5.32431 4.8829e+00    18.3366    35.1344  1025.3133    5.32432 0.0000e+00
       9173 171.484594     -0.214      3.943    18.3377   4.639891      4.000    5.32425 4.8771e+00    18.3370    35.1354  1025.3092    5.32426 0.0000e+00
       9186 171.484632     -0.353      3.100    18.3370   4.639657      3.000    5.32436 4.4908e+00    18.3365    35.1343  1025.3049    5.32436 0.0000e+00
       9297 171.484954     -0.096      1.939    18.3286   4.638609      2.000    5.32525 5.1794e+00    18.3283    35.1331  1025.3010    5.32525 0.0000e+00
